#Temperature (K)	Pressure (MPa)	Quality (l+v)	Internal Energy (l+v, kJ/mol)	Enthalpy (l+v, kJ/mol)	Entropy (l+v, J/mol*K)	Density (l, kg/m3)	Volume (l, m3/kg)	Internal Energy (l, kJ/mol)	Enthalpy (l, kJ/mol)	Entropy (l, J/mol*K)	Cv (l, J/mol*K)	Cp (l, J/mol*K)	Sound Spd. (l, m/s)	Joule-Thomson (l, K/MPa)	Viscosity (l, uPa*s)	Therm. Cond. (l, W/m*K)	Density (v, kg/m3)	Volume (v, m3/kg)	Internal Energy (v, kJ/mol)	Enthalpy (v, kJ/mol)	Entropy (v, J/mol*K)	Cv (v, J/mol*K)	Cp (v, J/mol*K)	Sound Spd. (v, m/s)	Joule-Thomson (v, K/MPa)	Viscosity (v, uPa*s)	Therm. Cond. (v, W/m*K)
14.000	0.0075414	0.0026605	-0.10616	-0.10566	-5.9760	76.969	0.012992	-0.10829	-0.10810	-6.1499	10.407	14.174	1268.3	-1.5728	25.447	0.097633	0.13272	7.5345	0.69226	0.80680	59.200	12.589	21.307	307.56	29.101	0.64763	0.010642
15.642	0.017612	0.0055798	-0.079801	-0.078629	-4.1974	75.582	0.013231	-0.084233	-0.083763	-4.5256	10.672	15.279	1233.3	-1.4254	20.992	0.10008	0.28115	3.5568	0.71005	0.83634	54.298	12.706	21.773	322.65	25.084	0.73772	0.012230
17.283	0.035544	0.010277	-0.050097	-0.047732	-2.3934	74.075	0.013500	-0.058159	-0.057192	-2.9407	10.972	16.650	1196.9	-1.2633	17.747	0.10192	0.52321	1.9113	0.72634	0.86329	50.318	12.802	22.391	335.99	22.126	0.82705	0.013911
18.925	0.064376	0.017237	-0.016549	-0.012266	-0.54074	72.428	0.013807	-0.029830	-0.028038	-1.3741	11.218	18.177	1157.4	-1.1008	15.254	0.10314	0.88692	1.1275	0.74065	0.88697	46.975	12.896	23.239	347.63	19.885	0.91654	0.015722
20.567	0.10737	0.026987	0.021248	0.028391	1.3730	70.621	0.014160	0.00096621	0.0040309	0.18853	11.438	19.926	1113.3	-0.93278	13.273	0.10375	1.4037	0.71240	0.75250	0.90669	44.078	13.017	24.430	357.52	18.078	1.0074	0.017700
22.208	0.16790	0.040142	0.063701	0.074872	3.3574	68.629	0.014571	0.034524	0.039455	1.7627	11.648	22.000	1063.6	-0.75254	11.654	0.10374	2.1108	0.47374	0.76138	0.92172	41.490	13.187	26.110	365.62	16.539	1.1012	0.019894
23.850	0.24945	0.057487	0.11123	0.12783	5.4210	66.414	0.015057	0.071254	0.078825	3.3663	11.854	24.566	1007.7	-0.55107	10.295	0.10309	3.0559	0.32724	0.76671	0.93126	39.108	13.418	28.507	371.90	15.178	1.2003	0.022370
25.492	0.35557	0.080122	0.16431	0.18796	7.5717	63.921	0.015644	0.11175	0.12296	5.0219	12.061	27.922	944.42	-0.31455	9.1222	0.10192	4.3048	0.23230	0.76769	0.93421	36.846	13.722	32.034	376.33	13.942	1.3081	0.025231
27.133	0.48994	0.10977	0.22349	0.25608	9.8203	61.055	0.016379	0.15695	0.17312	6.7628	12.279	32.695	872.11	-0.019376	8.0755	0.10004	5.9583	0.16783	0.76313	0.92890	34.617	14.113	37.568	378.92	12.782	1.4302	0.028677
28.775	0.65648	0.14950	0.28959	0.33326	12.184	57.645	0.017347	0.20850	0.23146	8.6463	12.540	40.454	787.58	0.37996	7.0994	0.097337	8.1923	0.12207	0.75087	0.91241	32.311	14.619	47.331	379.68	11.637	1.5769	0.033149
30.417	0.85963	0.20617	0.36408	0.42127	14.700	53.312	0.018758	0.27001	0.30251	10.796	12.928	56.590	684.60	0.98925	6.1244	0.093590	11.383	0.087854	0.72627	0.87851	29.733	15.305	68.997	378.63	10.389	1.7713	0.039884
32.058	1.1052	0.30378	0.45089	0.52442	17.478	46.769	0.021382	0.35344	0.40107	13.630	13.781	121.06	546.94	2.1641	4.9887	0.089656	16.768	0.059638	0.67425	0.80712	26.296	16.340	158.12	375.63	8.6943	2.0948	0.054443
33.700	1.3987	undefined	0.53679	0.62985	20.103	30.300	0.033003	0.53679	0.62985	20.103	16.553	680.10	395.17	5.1870	3.1073	0.093683	30.300	0.033003	0.53679	0.62985	20.103	16.553	680.10	395.17	5.1870	3.1073	0.093683
35.342	1.7035	undefined	0.56314	0.67647	20.866	30.300	0.033003	0.56314	0.67647	20.866	15.615	188.42	434.26	4.5632	3.2196	0.075759	30.300	0.033003	0.56314	0.67647	20.866	15.615	188.42	434.26	4.5632	3.2196	0.075759
36.983	2.0109	undefined	0.58822	0.72201	21.560	30.300	0.033003	0.58822	0.72201	21.560	14.975	116.35	468.85	4.0645	3.3251	0.071526	30.300	0.033003	0.58822	0.72201	21.560	14.975	116.35	468.85	4.0645	3.3251	0.071526
38.625	2.3203	undefined	0.61242	0.76679	22.200	30.300	0.033003	0.61242	0.76679	22.200	14.532	87.406	499.85	3.6519	3.4249	0.069939	30.300	0.033003	0.61242	0.76679	22.200	14.532	87.406	499.85	3.6519	3.4249	0.069939
40.267	2.6311	undefined	0.63600	0.81105	22.798	30.300	0.033003	0.63600	0.81105	22.798	14.221	71.818	528.01	3.3027	3.5197	0.069453	30.300	0.033003	0.63600	0.81105	22.798	14.221	71.818	528.01	3.3027	3.5197	0.069453
41.908	2.9428	undefined	0.65916	0.85494	23.362	30.300	0.033003	0.65916	0.85494	23.362	14.000	62.099	553.90	3.0021	3.6101	0.069520	30.300	0.033003	0.65916	0.85494	23.362	14.000	62.099	553.90	3.0021	3.6101	0.069520
43.550	3.2553	undefined	0.68200	0.89858	23.897	30.300	0.033003	0.68200	0.89858	23.897	13.841	55.473	577.98	2.7403	3.6965	0.069884	30.300	0.033003	0.68200	0.89858	23.897	13.841	55.473	577.98	2.7403	3.6965	0.069884
45.192	3.5682	undefined	0.70463	0.94202	24.407	30.300	0.033003	0.70463	0.94202	24.407	13.726	50.677	600.56	2.5100	3.7795	0.070412	30.300	0.033003	0.70463	0.94202	24.407	13.726	50.677	600.56	2.5100	3.7795	0.070412
46.833	3.8815	undefined	0.72709	0.98532	24.895	30.300	0.033003	0.72709	0.98532	24.895	13.643	47.050	621.91	2.3059	3.8592	0.071011	30.300	0.033003	0.72709	0.98532	24.895	13.643	47.050	621.91	2.3059	3.8592	0.071011
48.475	4.1949	undefined	0.74943	1.0285	25.364	30.300	0.033003	0.74943	1.0285	25.364	13.582	44.216	642.20	2.1236	3.9362	0.071582	30.300	0.033003	0.74943	1.0285	25.364	13.582	44.216	642.20	2.1236	3.9362	0.071582
50.117	4.5084	undefined	0.77169	1.0716	25.816	30.300	0.033003	0.77169	1.0716	25.816	13.539	41.943	661.58	1.9600	4.0106	0.071784	30.300	0.033003	0.77169	1.0716	25.816	13.539	41.943	661.58	1.9600	4.0106	0.071784
51.758	4.8219	undefined	0.79389	1.1147	26.251	30.300	0.033003	0.79389	1.1147	26.251	13.510	40.082	680.16	1.8122	4.0826	0.072884	30.300	0.033003	0.79389	1.1147	26.251	13.510	40.082	680.16	1.8122	4.0826	0.072884
53.400	5.1353	undefined	0.81606	1.1577	26.673	30.300	0.033003	0.81606	1.1577	26.673	13.491	38.533	698.03	1.6781	4.1526	0.073974	30.300	0.033003	0.81606	1.1577	26.673	13.491	38.533	698.03	1.6781	4.1526	0.073974
55.042	5.4486	undefined	0.83819	1.2007	27.081	30.300	0.033003	0.83819	1.2007	27.081	13.481	37.224	715.25	1.5559	4.2205	0.075057	30.300	0.033003	0.83819	1.2007	27.081	13.481	37.224	715.25	1.5559	4.2205	0.075057
56.683	5.7617	undefined	0.86032	1.2437	27.477	30.300	0.033003	0.86032	1.2437	27.477	13.479	36.106	731.89	1.4441	4.2868	0.076132	30.300	0.033003	0.86032	1.2437	27.477	13.479	36.106	731.89	1.4441	4.2868	0.076132
58.325	6.0746	undefined	0.88245	1.2866	27.862	30.300	0.033003	0.88245	1.2866	27.862	13.484	35.141	747.97	1.3413	4.3513	0.077201	30.300	0.033003	0.88245	1.2866	27.862	13.484	35.141	747.97	1.3413	4.3513	0.077201
59.967	6.3873	undefined	0.90460	1.3295	28.237	30.300	0.033003	0.90460	1.3295	28.237	13.495	34.303	763.55	1.2466	4.4144	0.078263	30.300	0.033003	0.90460	1.3295	28.237	13.495	34.303	763.55	1.2466	4.4144	0.078263
61.608	6.6997	undefined	0.92677	1.3725	28.601	30.300	0.033003	0.92677	1.3725	28.601	13.511	33.568	778.66	1.1591	4.4761	0.079321	30.300	0.033003	0.92677	1.3725	28.601	13.511	33.568	778.66	1.1591	4.4761	0.079321
63.250	7.0118	undefined	0.94896	1.4155	28.957	30.300	0.033003	0.94896	1.4155	28.957	13.533	32.921	793.31	1.0779	4.5365	0.080374	30.300	0.033003	0.94896	1.4155	28.957	13.533	32.921	793.31	1.0779	4.5365	0.080374
64.892	7.3236	undefined	0.97120	1.4584	29.304	30.300	0.033003	0.97120	1.4584	29.304	13.560	32.348	807.54	1.0024	4.5958	0.081424	30.300	0.033003	0.97120	1.4584	29.304	13.560	32.348	807.54	1.0024	4.5958	0.081424
66.533	7.6352	undefined	0.99349	1.5015	29.643	30.300	0.033003	0.99349	1.5015	29.643	13.592	31.840	821.37	0.93203	4.6539	0.082470	30.300	0.033003	0.99349	1.5015	29.643	13.592	31.840	821.37	0.93203	4.6539	0.082470
68.175	7.9464	undefined	1.0158	1.5445	29.975	30.300	0.033003	1.0158	1.5445	29.975	13.629	31.386	834.82	0.86628	4.7110	0.083513	30.300	0.033003	1.0158	1.5445	29.975	13.629	31.386	834.82	0.86628	4.7110	0.083513
69.817	8.2573	undefined	1.0382	1.5876	30.300	30.300	0.033003	1.0382	1.5876	30.300	13.670	30.981	847.91	0.80474	4.7672	0.084555	30.300	0.033003	1.0382	1.5876	30.300	13.670	30.981	847.91	0.80474	4.7672	0.084555
71.458	8.5678	undefined	1.0607	1.6307	30.618	30.300	0.033003	1.0607	1.6307	30.618	13.716	30.619	860.65	0.74701	4.8224	0.085595	30.300	0.033003	1.0607	1.6307	30.618	13.716	30.619	860.65	0.74701	4.8224	0.085595
73.100	8.8780	undefined	1.0833	1.6739	30.930	30.300	0.033003	1.0833	1.6739	30.930	13.766	30.294	873.06	0.69278	4.8769	0.086634	30.300	0.033003	1.0833	1.6739	30.930	13.766	30.294	873.06	0.69278	4.8769	0.086634
74.742	9.1879	undefined	1.1059	1.7172	31.236	30.300	0.033003	1.1059	1.7172	31.236	13.819	30.002	885.15	0.64175	4.9305	0.087673	30.300	0.033003	1.1059	1.7172	31.236	13.819	30.002	885.15	0.64175	4.9305	0.087673
76.383	9.4974	undefined	1.1287	1.7605	31.537	30.300	0.033003	1.1287	1.7605	31.537	13.877	29.741	896.95	0.59367	4.9835	0.088712	30.300	0.033003	1.1287	1.7605	31.537	13.877	29.741	896.95	0.59367	4.9835	0.088712
78.025	9.8066	undefined	1.1515	1.8039	31.833	30.300	0.033003	1.1515	1.8039	31.833	13.939	29.506	908.45	0.54830	5.0357	0.089752	30.300	0.033003	1.1515	1.8039	31.833	13.939	29.506	908.45	0.54830	5.0357	0.089752
79.667	10.115	undefined	1.1744	1.8474	32.124	30.300	0.033003	1.1744	1.8474	32.124	14.004	29.295	919.69	0.50543	5.0873	0.090793	30.300	0.033003	1.1744	1.8474	32.124	14.004	29.295	919.69	0.50543	5.0873	0.090793
81.308	10.424	undefined	1.1975	1.8910	32.410	30.300	0.033003	1.1975	1.8910	32.410	14.072	29.107	930.66	0.46490	5.1383	0.091836	30.300	0.033003	1.1975	1.8910	32.410	14.072	29.107	930.66	0.46490	5.1383	0.091836
82.950	10.732	undefined	1.2206	1.9346	32.692	30.300	0.033003	1.2206	1.9346	32.692	14.144	28.938	941.39	0.42652	5.1887	0.092880	30.300	0.033003	1.2206	1.9346	32.692	14.144	28.938	941.39	0.42652	5.1887	0.092880
84.592	11.040	undefined	1.2439	1.9784	32.970	30.300	0.033003	1.2439	1.9784	32.970	14.219	28.788	951.88	0.39015	5.2386	0.093927	30.300	0.033003	1.2439	1.9784	32.970	14.219	28.788	951.88	0.39015	5.2386	0.093927
86.233	11.347	undefined	1.2673	2.0222	33.244	30.300	0.033003	1.2673	2.0222	33.244	14.296	28.654	962.14	0.35566	5.2879	0.094977	30.300	0.033003	1.2673	2.0222	33.244	14.296	28.654	962.14	0.35566	5.2879	0.094977
87.875	11.654	undefined	1.2908	2.0662	33.515	30.300	0.033003	1.2908	2.0662	33.515	14.376	28.535	972.19	0.32292	5.3368	0.096029	30.300	0.033003	1.2908	2.0662	33.515	14.376	28.535	972.19	0.32292	5.3368	0.096029
89.517	11.961	undefined	1.3145	2.1103	33.781	30.300	0.033003	1.3145	2.1103	33.781	14.459	28.430	982.04	0.29182	5.3852	0.097085	30.300	0.033003	1.3145	2.1103	33.781	14.459	28.430	982.04	0.29182	5.3852	0.097085
91.158	12.267	undefined	1.3383	2.1545	34.045	30.300	0.033003	1.3383	2.1545	34.045	14.543	28.338	991.69	0.26226	5.4332	0.098143	30.300	0.033003	1.3383	2.1545	34.045	14.543	28.338	991.69	0.26226	5.4332	0.098143
92.800	12.573	undefined	1.3623	2.1988	34.305	30.300	0.033003	1.3623	2.1988	34.305	14.630	28.257	1001.2	0.23414	5.4808	0.099206	30.300	0.033003	1.3623	2.1988	34.305	14.630	28.257	1001.2	0.23414	5.4808	0.099206
94.442	12.879	undefined	1.3864	2.2432	34.563	30.300	0.033003	1.3864	2.2432	34.563	14.718	28.187	1010.5	0.20738	5.5279	0.10027	30.300	0.033003	1.3864	2.2432	34.563	14.718	28.187	1010.5	0.20738	5.5279	0.10027
96.083	13.184	undefined	1.4106	2.2877	34.817	30.300	0.033003	1.4106	2.2877	34.817	14.809	28.126	1019.6	0.18189	5.5747	0.10134	30.300	0.033003	1.4106	2.2877	34.817	14.809	28.126	1019.6	0.18189	5.5747	0.10134
97.725	13.489	undefined	1.4350	2.3324	35.069	30.300	0.033003	1.4350	2.3324	35.069	14.900	28.075	1028.6	0.15760	5.6211	0.10242	30.300	0.033003	1.4350	2.3324	35.069	14.900	28.075	1028.6	0.15760	5.6211	0.10242
99.367	13.794	undefined	1.4595	2.3772	35.318	30.300	0.033003	1.4595	2.3772	35.318	14.993	28.031	1037.4	0.13444	5.6672	0.10349	30.300	0.033003	1.4595	2.3772	35.318	14.993	28.031	1037.4	0.13444	5.6672	0.10349
101.01	14.098	undefined	1.4842	2.4222	35.564	30.300	0.033003	1.4842	2.4222	35.564	15.087	27.996	1046.1	0.11235	5.7129	0.10458	30.300	0.033003	1.4842	2.4222	35.564	15.087	27.996	1046.1	0.11235	5.7129	0.10458
102.65	14.402	undefined	1.5091	2.4672	35.808	30.300	0.033003	1.5091	2.4672	35.808	15.182	27.967	1054.6	0.091266	5.7584	0.10566	30.300	0.033003	1.5091	2.4672	35.808	15.182	27.967	1054.6	0.091266	5.7584	0.10566
104.29	14.706	undefined	1.5341	2.5124	36.050	30.300	0.033003	1.5341	2.5124	36.050	15.278	27.945	1063.0	0.071132	5.8035	0.10675	30.300	0.033003	1.5341	2.5124	36.050	15.278	27.945	1063.0	0.071132	5.8035	0.10675
105.93	15.009	undefined	1.5592	2.5578	36.289	30.300	0.033003	1.5592	2.5578	36.289	15.375	27.928	1071.3	0.051897	5.8483	0.10785	30.300	0.033003	1.5592	2.5578	36.289	15.375	27.928	1071.3	0.051897	5.8483	0.10785
107.57	15.312	undefined	1.5845	2.6033	36.526	30.300	0.033003	1.5845	2.6033	36.526	15.472	27.917	1079.5	0.033512	5.8928	0.10894	30.300	0.033003	1.5845	2.6033	36.526	15.472	27.917	1079.5	0.033512	5.8928	0.10894
109.22	15.615	undefined	1.6100	2.6489	36.761	30.300	0.033003	1.6100	2.6489	36.761	15.569	27.910	1087.6	0.015931	5.9371	0.11004	30.300	0.033003	1.6100	2.6489	36.761	15.569	27.910	1087.6	0.015931	5.9371	0.11004
110.86	15.917	undefined	1.6357	2.6946	36.994	30.300	0.033003	1.6357	2.6946	36.994	15.667	27.909	1095.5	-0.00088808	5.9811	0.11115	30.300	0.033003	1.6357	2.6946	36.994	15.667	27.909	1095.5	-0.00088808	5.9811	0.11115
112.50	16.219	undefined	1.6615	2.7405	37.225	30.300	0.033003	1.6615	2.7405	37.225	15.764	27.911	1103.4	-0.016986	6.0249	0.11226	30.300	0.033003	1.6615	2.7405	37.225	15.764	27.911	1103.4	-0.016986	6.0249	0.11226
114.14	16.521	undefined	1.6874	2.7866	37.455	30.300	0.033003	1.6874	2.7866	37.455	15.862	27.917	1111.2	-0.032401	6.0684	0.11337	30.300	0.033003	1.6874	2.7866	37.455	15.862	27.917	1111.2	-0.032401	6.0684	0.11337
115.78	16.822	undefined	1.7135	2.8327	37.682	30.300	0.033003	1.7135	2.8327	37.682	15.959	27.926	1118.8	-0.047168	6.1117	0.11449	30.300	0.033003	1.7135	2.8327	37.682	15.959	27.926	1118.8	-0.047168	6.1117	0.11449
117.42	17.123	undefined	1.7398	2.8790	37.907	30.300	0.033003	1.7398	2.8790	37.907	16.057	27.939	1126.4	-0.061321	6.1548	0.11560	30.300	0.033003	1.7398	2.8790	37.907	16.057	27.939	1126.4	-0.061321	6.1548	0.11560
119.07	17.424	undefined	1.7663	2.9255	38.131	30.300	0.033003	1.7663	2.9255	38.131	16.154	27.954	1133.9	-0.074891	6.1976	0.11673	30.300	0.033003	1.7663	2.9255	38.131	16.154	27.954	1133.9	-0.074891	6.1976	0.11673
120.71	17.725	undefined	1.7929	2.9721	38.353	30.300	0.033003	1.7929	2.9721	38.353	16.250	27.972	1141.4	-0.087907	6.2402	0.11785	30.300	0.033003	1.7929	2.9721	38.353	16.250	27.972	1141.4	-0.087907	6.2402	0.11785
122.35	18.025	undefined	1.8196	3.0188	38.573	30.300	0.033003	1.8196	3.0188	38.573	16.346	27.992	1148.7	-0.10040	6.2827	0.11898	30.300	0.033003	1.8196	3.0188	38.573	16.346	27.992	1148.7	-0.10040	6.2827	0.11898
123.99	18.325	undefined	1.8465	3.0657	38.791	30.300	0.033003	1.8465	3.0657	38.791	16.442	28.015	1156.0	-0.11239	6.3249	0.12010	30.300	0.033003	1.8465	3.0657	38.791	16.442	28.015	1156.0	-0.11239	6.3249	0.12010
125.63	18.624	undefined	1.8736	3.1127	39.008	30.300	0.033003	1.8736	3.1127	39.008	16.536	28.039	1163.2	-0.12391	6.3669	0.12123	30.300	0.033003	1.8736	3.1127	39.008	16.536	28.039	1163.2	-0.12391	6.3669	0.12123
127.27	18.924	undefined	1.9008	3.1598	39.223	30.300	0.033003	1.9008	3.1598	39.223	16.631	28.065	1170.4	-0.13498	6.4088	0.12237	30.300	0.033003	1.9008	3.1598	39.223	16.631	28.065	1170.4	-0.13498	6.4088	0.12237
128.92	19.223	undefined	1.9282	3.2071	39.437	30.300	0.033003	1.9282	3.2071	39.437	16.724	28.092	1177.5	-0.14562	6.4505	0.12350	30.300	0.033003	1.9282	3.2071	39.437	16.724	28.092	1177.5	-0.14562	6.4505	0.12350
130.56	19.521	undefined	1.9557	3.2545	39.649	30.300	0.033003	1.9557	3.2545	39.649	16.816	28.121	1184.5	-0.15585	6.4919	0.12464	30.300	0.033003	1.9557	3.2545	39.649	16.816	28.121	1184.5	-0.15585	6.4919	0.12464
132.20	19.820	undefined	1.9834	3.3020	39.860	30.300	0.033003	1.9834	3.3020	39.860	16.908	28.151	1191.5	-0.16569	6.5333	0.12577	30.300	0.033003	1.9834	3.3020	39.860	16.908	28.151	1191.5	-0.16569	6.5333	0.12577
133.84	20.118	undefined	2.0112	3.3497	40.069	30.300	0.033003	2.0112	3.3497	40.069	16.999	28.181	1198.4	-0.17517	6.5744	0.12691	30.300	0.033003	2.0112	3.3497	40.069	16.999	28.181	1198.4	-0.17517	6.5744	0.12691
135.48	20.416	undefined	2.0392	3.3975	40.277	30.300	0.033003	2.0392	3.3975	40.277	17.089	28.213	1205.2	-0.18429	6.6154	0.12805	30.300	0.033003	2.0392	3.3975	40.277	17.089	28.213	1205.2	-0.18429	6.6154	0.12805
137.12	20.714	undefined	2.0673	3.4454	40.483	30.300	0.033003	2.0673	3.4454	40.483	17.177	28.246	1212.0	-0.19308	6.6563	0.12919	30.300	0.033003	2.0673	3.4454	40.483	17.177	28.246	1212.0	-0.19308	6.6563	0.12919
138.77	21.011	undefined	2.0956	3.4935	40.688	30.300	0.033003	2.0956	3.4935	40.688	17.265	28.279	1218.8	-0.20155	6.6969	0.13032	30.300	0.033003	2.0956	3.4935	40.688	17.265	28.279	1218.8	-0.20155	6.6969	0.13032
140.41	21.308	undefined	2.1240	3.5417	40.892	30.300	0.033003	2.1240	3.5417	40.892	17.352	28.313	1225.5	-0.20972	6.7375	0.13146	30.300	0.033003	2.1240	3.5417	40.892	17.352	28.313	1225.5	-0.20972	6.7375	0.13146
142.05	21.605	undefined	2.1526	3.5900	41.094	30.300	0.033003	2.1526	3.5900	41.094	17.438	28.347	1232.1	-0.21759	6.7779	0.13260	30.300	0.033003	2.1526	3.5900	41.094	17.438	28.347	1232.1	-0.21759	6.7779	0.13260
143.69	21.901	undefined	2.1813	3.6384	41.295	30.300	0.033003	2.1813	3.6384	41.295	17.522	28.382	1238.7	-0.22519	6.8181	0.13374	30.300	0.033003	2.1813	3.6384	41.295	17.522	28.382	1238.7	-0.22519	6.8181	0.13374
145.33	22.198	undefined	2.2101	3.6870	41.495	30.300	0.033003	2.2101	3.6870	41.495	17.606	28.417	1245.3	-0.23253	6.8582	0.13487	30.300	0.033003	2.2101	3.6870	41.495	17.606	28.417	1245.3	-0.23253	6.8582	0.13487
146.98	22.494	undefined	2.2391	3.7356	41.693	30.300	0.033003	2.2391	3.7356	41.693	17.688	28.452	1251.8	-0.23961	6.8982	0.13601	30.300	0.033003	2.2391	3.7356	41.693	17.688	28.452	1251.8	-0.23961	6.8982	0.13601
148.62	22.790	undefined	2.2682	3.7844	41.890	30.300	0.033003	2.2682	3.7844	41.890	17.769	28.487	1258.3	-0.24646	6.9380	0.13715	30.300	0.033003	2.2682	3.7844	41.890	17.769	28.487	1258.3	-0.24646	6.9380	0.13715
150.26	23.085	undefined	2.2974	3.8333	42.085	30.300	0.033003	2.2974	3.8333	42.085	17.849	28.522	1264.7	-0.25307	6.9777	0.13828	30.300	0.033003	2.2974	3.8333	42.085	17.849	28.522	1264.7	-0.25307	6.9777	0.13828
151.90	23.380	undefined	2.3268	3.8823	42.280	30.300	0.033003	2.3268	3.8823	42.280	17.928	28.558	1271.1	-0.25946	7.0173	0.13941	30.300	0.033003	2.3268	3.8823	42.280	17.928	28.558	1271.1	-0.25946	7.0173	0.13941
153.54	23.676	undefined	2.3563	3.9314	42.473	30.300	0.033003	2.3563	3.9314	42.473	18.005	28.593	1277.5	-0.26565	7.0568	0.14054	30.300	0.033003	2.3563	3.9314	42.473	18.005	28.593	1277.5	-0.26565	7.0568	0.14054
155.18	23.970	undefined	2.3859	3.9807	42.665	30.300	0.033003	2.3859	3.9807	42.665	18.082	28.628	1283.8	-0.27163	7.0961	0.14167	30.300	0.033003	2.3859	3.9807	42.665	18.082	28.628	1283.8	-0.27163	7.0961	0.14167
156.83	24.265	undefined	2.4157	4.0300	42.855	30.300	0.033003	2.4157	4.0300	42.855	18.157	28.663	1290.1	-0.27742	7.1353	0.14280	30.300	0.033003	2.4157	4.0300	42.855	18.157	28.663	1290.1	-0.27742	7.1353	0.14280
158.47	24.559	undefined	2.4455	4.0795	43.045	30.300	0.033003	2.4455	4.0795	43.045	18.231	28.698	1296.3	-0.28303	7.1744	0.14392	30.300	0.033003	2.4455	4.0795	43.045	18.231	28.698	1296.3	-0.28303	7.1744	0.14392
160.11	24.853	undefined	2.4755	4.1290	43.233	30.300	0.033003	2.4755	4.1290	43.233	18.304	28.733	1302.5	-0.28847	7.2134	0.14504	30.300	0.033003	2.4755	4.1290	43.233	18.304	28.733	1302.5	-0.28847	7.2134	0.14504
161.75	25.147	undefined	2.5056	4.1787	43.420	30.300	0.033003	2.5056	4.1787	43.420	18.376	28.767	1308.7	-0.29373	7.2523	0.14616	30.300	0.033003	2.5056	4.1787	43.420	18.376	28.767	1308.7	-0.29373	7.2523	0.14616
163.39	25.441	undefined	2.5359	4.2284	43.606	30.300	0.033003	2.5359	4.2284	43.606	18.446	28.802	1314.9	-0.29884	7.2910	0.14728	30.300	0.033003	2.5359	4.2284	43.606	18.446	28.802	1314.9	-0.29884	7.2910	0.14728
165.03	25.734	undefined	2.5662	4.2783	43.791	30.300	0.033003	2.5662	4.2783	43.791	18.516	28.835	1321.0	-0.30379	7.3297	0.14840	30.300	0.033003	2.5662	4.2783	43.791	18.516	28.835	1321.0	-0.30379	7.3297	0.14840
166.68	26.027	undefined	2.5966	4.3283	43.975	30.300	0.033003	2.5966	4.3283	43.975	18.584	28.869	1327.1	-0.30859	7.3682	0.14951	30.300	0.033003	2.5966	4.3283	43.975	18.584	28.869	1327.1	-0.30859	7.3682	0.14951
168.32	26.320	undefined	2.6272	4.3783	44.157	30.300	0.033003	2.6272	4.3783	44.157	18.651	28.902	1333.1	-0.31325	7.4067	0.15062	30.300	0.033003	2.6272	4.3783	44.157	18.651	28.902	1333.1	-0.31325	7.4067	0.15062
169.96	26.613	undefined	2.6579	4.4285	44.338	30.300	0.033003	2.6579	4.4285	44.338	18.717	28.935	1339.1	-0.31777	7.4450	0.15172	30.300	0.033003	2.6579	4.4285	44.338	18.717	28.935	1339.1	-0.31777	7.4450	0.15172
171.60	26.905	undefined	2.6887	4.4787	44.519	30.300	0.033003	2.6887	4.4787	44.519	18.782	28.968	1345.1	-0.32216	7.4832	0.15283	30.300	0.033003	2.6887	4.4787	44.519	18.782	28.968	1345.1	-0.32216	7.4832	0.15283
173.24	27.198	undefined	2.7195	4.5290	44.698	30.300	0.033003	2.7195	4.5290	44.698	18.845	29.000	1351.1	-0.32643	7.5214	0.15392	30.300	0.033003	2.7195	4.5290	44.698	18.845	29.000	1351.1	-0.32643	7.5214	0.15392
174.88	27.490	undefined	2.7505	4.5794	44.876	30.300	0.033003	2.7505	4.5794	44.876	18.908	29.031	1357.0	-0.33058	7.5594	0.15502	30.300	0.033003	2.7505	4.5794	44.876	18.908	29.031	1357.0	-0.33058	7.5594	0.15502
176.53	27.781	undefined	2.7816	4.6299	45.053	30.300	0.033003	2.7816	4.6299	45.053	18.969	29.062	1362.9	-0.33461	7.5974	0.15611	30.300	0.033003	2.7816	4.6299	45.053	18.969	29.062	1362.9	-0.33461	7.5974	0.15611
178.17	28.073	undefined	2.8128	4.6805	45.229	30.300	0.033003	2.8128	4.6805	45.229	19.029	29.093	1368.7	-0.33853	7.6352	0.15720	30.300	0.033003	2.8128	4.6805	45.229	19.029	29.093	1368.7	-0.33853	7.6352	0.15720
179.81	28.364	undefined	2.8441	4.7312	45.403	30.300	0.033003	2.8441	4.7312	45.403	19.089	29.123	1374.6	-0.34234	7.6730	0.15829	30.300	0.033003	2.8441	4.7312	45.403	19.089	29.123	1374.6	-0.34234	7.6730	0.15829
181.45	28.655	undefined	2.8755	4.7820	45.577	30.300	0.033003	2.8755	4.7820	45.577	19.147	29.153	1380.4	-0.34606	7.7107	0.15937	30.300	0.033003	2.8755	4.7820	45.577	19.147	29.153	1380.4	-0.34606	7.7107	0.15937
183.09	28.946	undefined	2.9070	4.8328	45.750	30.300	0.033003	2.9070	4.8328	45.750	19.204	29.183	1386.2	-0.34967	7.7482	0.16045	30.300	0.033003	2.9070	4.8328	45.750	19.204	29.183	1386.2	-0.34967	7.7482	0.16045
184.73	29.237	undefined	2.9385	4.8837	45.922	30.300	0.033003	2.9385	4.8837	45.922	19.260	29.211	1392.0	-0.35319	7.7857	0.16153	30.300	0.033003	2.9385	4.8837	45.922	19.260	29.211	1392.0	-0.35319	7.7857	0.16153
186.38	29.528	undefined	2.9702	4.9347	46.092	30.300	0.033003	2.9702	4.9347	46.092	19.315	29.240	1397.7	-0.35661	7.8231	0.16260	30.300	0.033003	2.9702	4.9347	46.092	19.315	29.240	1397.7	-0.35661	7.8231	0.16260
188.02	29.818	undefined	3.0020	4.9858	46.262	30.300	0.033003	3.0020	4.9858	46.262	19.368	29.268	1403.4	-0.35995	7.8605	0.16366	30.300	0.033003	3.0020	4.9858	46.262	19.368	29.268	1403.4	-0.35995	7.8605	0.16366
189.66	30.108	undefined	3.0338	5.0369	46.430	30.300	0.033003	3.0338	5.0369	46.430	19.421	29.295	1409.1	-0.36321	7.8977	0.16473	30.300	0.033003	3.0338	5.0369	46.430	19.421	29.295	1409.1	-0.36321	7.8977	0.16473
191.30	30.398	undefined	3.0657	5.0881	46.598	30.300	0.033003	3.0657	5.0881	46.598	19.473	29.322	1414.7	-0.36638	7.9349	0.16579	30.300	0.033003	3.0657	5.0881	46.598	19.473	29.322	1414.7	-0.36638	7.9349	0.16579
192.94	30.688	undefined	3.0977	5.1394	46.765	30.300	0.033003	3.0977	5.1394	46.765	19.524	29.348	1420.4	-0.36947	7.9719	0.16684	30.300	0.033003	3.0977	5.1394	46.765	19.524	29.348	1420.4	-0.36947	7.9719	0.16684
194.58	30.977	undefined	3.1298	5.1908	46.930	30.300	0.033003	3.1298	5.1908	46.930	19.574	29.374	1426.0	-0.37249	8.0089	0.16789	30.300	0.033003	3.1298	5.1908	46.930	19.574	29.374	1426.0	-0.37249	8.0089	0.16789
196.23	31.267	undefined	3.1620	5.2422	47.095	30.300	0.033003	3.1620	5.2422	47.095	19.623	29.400	1431.6	-0.37543	8.0459	0.16894	30.300	0.033003	3.1620	5.2422	47.095	19.623	29.400	1431.6	-0.37543	8.0459	0.16894
197.87	31.556	undefined	3.1943	5.2937	47.259	30.300	0.033003	3.1943	5.2937	47.259	19.671	29.424	1437.1	-0.37831	8.0827	0.16999	30.300	0.033003	3.1943	5.2937	47.259	19.671	29.424	1437.1	-0.37831	8.0827	0.16999
199.51	31.845	undefined	3.2266	5.3452	47.421	30.300	0.033003	3.2266	5.3452	47.421	19.718	29.449	1442.7	-0.38112	8.1195	0.17103	30.300	0.033003	3.2266	5.3452	47.421	19.718	29.449	1442.7	-0.38112	8.1195	0.17103
201.15	32.133	undefined	3.2590	5.3969	47.583	30.300	0.033003	3.2590	5.3969	47.583	19.764	29.473	1448.2	-0.38386	8.1562	0.17206	30.300	0.033003	3.2590	5.3969	47.583	19.764	29.473	1448.2	-0.38386	8.1562	0.17206
202.79	32.422	undefined	3.2915	5.4485	47.744	30.300	0.033003	3.2915	5.4485	47.744	19.809	29.496	1453.7	-0.38653	8.1928	0.17310	30.300	0.033003	3.2915	5.4485	47.744	19.809	29.496	1453.7	-0.38653	8.1928	0.17310
204.43	32.710	undefined	3.3240	5.5003	47.904	30.300	0.033003	3.3240	5.5003	47.904	19.853	29.519	1459.2	-0.38915	8.2293	0.17412	30.300	0.033003	3.3240	5.5003	47.904	19.853	29.519	1459.2	-0.38915	8.2293	0.17412
206.08	32.999	undefined	3.3567	5.5521	48.063	30.300	0.033003	3.3567	5.5521	48.063	19.897	29.541	1464.6	-0.39171	8.2658	0.17515	30.300	0.033003	3.3567	5.5521	48.063	19.897	29.541	1464.6	-0.39171	8.2658	0.17515
207.72	33.286	undefined	3.3894	5.6039	48.221	30.300	0.033003	3.3894	5.6039	48.221	19.939	29.563	1470.0	-0.39421	8.3022	0.17617	30.300	0.033003	3.3894	5.6039	48.221	19.939	29.563	1470.0	-0.39421	8.3022	0.17617
209.36	33.574	undefined	3.4221	5.6559	48.378	30.300	0.033003	3.4221	5.6559	48.378	19.981	29.584	1475.4	-0.39665	8.3385	0.17718	30.300	0.033003	3.4221	5.6559	48.378	19.981	29.584	1475.4	-0.39665	8.3385	0.17718
211.00	33.862	undefined	3.4550	5.7078	48.534	30.300	0.033003	3.4550	5.7078	48.534	20.022	29.605	1480.8	-0.39904	8.3748	0.17820	30.300	0.033003	3.4550	5.7078	48.534	20.022	29.605	1480.8	-0.39904	8.3748	0.17820
212.64	34.149	undefined	3.4879	5.7598	48.690	30.300	0.033003	3.4879	5.7598	48.690	20.062	29.626	1486.2	-0.40139	8.4110	0.17920	30.300	0.033003	3.4879	5.7598	48.690	20.062	29.626	1486.2	-0.40139	8.4110	0.17920
214.28	34.437	undefined	3.5208	5.8119	48.844	30.300	0.033003	3.5208	5.8119	48.844	20.101	29.646	1491.5	-0.40368	8.4471	0.18021	30.300	0.033003	3.5208	5.8119	48.844	20.101	29.646	1491.5	-0.40368	8.4471	0.18021
215.93	34.724	undefined	3.5539	5.8641	48.998	30.300	0.033003	3.5539	5.8641	48.998	20.139	29.665	1496.9	-0.40592	8.4831	0.18121	30.300	0.033003	3.5539	5.8641	48.998	20.139	29.665	1496.9	-0.40592	8.4831	0.18121
217.57	35.011	undefined	3.5870	5.9162	49.150	30.300	0.033003	3.5870	5.9162	49.150	20.177	29.684	1502.2	-0.40811	8.5191	0.18220	30.300	0.033003	3.5870	5.9162	49.150	20.177	29.684	1502.2	-0.40811	8.5191	0.18220
219.21	35.297	undefined	3.6201	5.9685	49.302	30.300	0.033003	3.6201	5.9685	49.302	20.214	29.703	1507.5	-0.41026	8.5551	0.18320	30.300	0.033003	3.6201	5.9685	49.302	20.214	29.703	1507.5	-0.41026	8.5551	0.18320
220.85	35.584	undefined	3.6533	6.0207	49.453	30.300	0.033003	3.6533	6.0207	49.453	20.250	29.721	1512.7	-0.41237	8.5909	0.18418	30.300	0.033003	3.6533	6.0207	49.453	20.250	29.721	1512.7	-0.41237	8.5909	0.18418
222.49	35.870	undefined	3.6866	6.0731	49.603	30.300	0.033003	3.6866	6.0731	49.603	20.285	29.738	1518.0	-0.41443	8.6267	0.18517	30.300	0.033003	3.6866	6.0731	49.603	20.285	29.738	1518.0	-0.41443	8.6267	0.18517
224.13	36.157	undefined	3.7199	6.1254	49.752	30.300	0.033003	3.7199	6.1254	49.752	20.319	29.755	1523.2	-0.41646	8.6625	0.18615	30.300	0.033003	3.7199	6.1254	49.752	20.319	29.755	1523.2	-0.41646	8.6625	0.18615
225.78	36.443	undefined	3.7533	6.1779	49.901	30.300	0.033003	3.7533	6.1779	49.901	20.353	29.772	1528.4	-0.41844	8.6981	0.18713	30.300	0.033003	3.7533	6.1779	49.901	20.353	29.772	1528.4	-0.41844	8.6981	0.18713
227.42	36.728	undefined	3.7868	6.2303	50.048	30.300	0.033003	3.7868	6.2303	50.048	20.386	29.788	1533.6	-0.42039	8.7337	0.18810	30.300	0.033003	3.7868	6.2303	50.048	20.386	29.788	1533.6	-0.42039	8.7337	0.18810
229.06	37.014	undefined	3.8202	6.2828	50.195	30.300	0.033003	3.8202	6.2828	50.195	20.419	29.804	1538.7	-0.42229	8.7693	0.18907	30.300	0.033003	3.8202	6.2828	50.195	20.419	29.804	1538.7	-0.42229	8.7693	0.18907
230.70	37.300	undefined	3.8538	6.3354	50.341	30.300	0.033003	3.8538	6.3354	50.341	20.450	29.819	1543.9	-0.42416	8.8048	0.19003	30.300	0.033003	3.8538	6.3354	50.341	20.450	29.819	1543.9	-0.42416	8.8048	0.19003
232.34	37.585	undefined	3.8874	6.3880	50.486	30.300	0.033003	3.8874	6.3880	50.486	20.481	29.834	1549.0	-0.42600	8.8402	0.19100	30.300	0.033003	3.8874	6.3880	50.486	20.481	29.834	1549.0	-0.42600	8.8402	0.19100
233.98	37.870	undefined	3.9210	6.4406	50.630	30.300	0.033003	3.9210	6.4406	50.630	20.512	29.849	1554.1	-0.42780	8.8756	0.19195	30.300	0.033003	3.9210	6.4406	50.630	20.512	29.849	1554.1	-0.42780	8.8756	0.19195
235.63	38.155	undefined	3.9547	6.4932	50.774	30.300	0.033003	3.9547	6.4932	50.774	20.541	29.863	1559.2	-0.42957	8.9109	0.19291	30.300	0.033003	3.9547	6.4932	50.774	20.541	29.863	1559.2	-0.42957	8.9109	0.19291
237.27	38.440	undefined	3.9885	6.5459	50.917	30.300	0.033003	3.9885	6.5459	50.917	20.570	29.877	1564.3	-0.43131	8.9462	0.19386	30.300	0.033003	3.9885	6.5459	50.917	20.570	29.877	1564.3	-0.43131	8.9462	0.19386
238.91	38.725	undefined	4.0223	6.5987	51.059	30.300	0.033003	4.0223	6.5987	51.059	20.599	29.890	1569.4	-0.43301	8.9814	0.19480	30.300	0.033003	4.0223	6.5987	51.059	20.599	29.890	1569.4	-0.43301	8.9814	0.19480
240.55	39.009	undefined	4.0561	6.6514	51.200	30.300	0.033003	4.0561	6.6514	51.200	20.626	29.903	1574.4	-0.43469	9.0165	0.19575	30.300	0.033003	4.0561	6.6514	51.200	20.626	29.903	1574.4	-0.43469	9.0165	0.19575
242.19	39.294	undefined	4.0900	6.7042	51.340	30.300	0.033003	4.0900	6.7042	51.340	20.653	29.916	1579.4	-0.43633	9.0516	0.19669	30.300	0.033003	4.0900	6.7042	51.340	20.653	29.916	1579.4	-0.43633	9.0516	0.19669
243.83	39.578	undefined	4.1239	6.7571	51.480	30.300	0.033003	4.1239	6.7571	51.480	20.680	29.928	1584.4	-0.43795	9.0866	0.19762	30.300	0.033003	4.1239	6.7571	51.480	20.680	29.928	1584.4	-0.43795	9.0866	0.19762
245.48	39.862	undefined	4.1579	6.8100	51.619	30.300	0.033003	4.1579	6.8100	51.619	20.706	29.939	1589.4	-0.43953	9.1216	0.19856	30.300	0.033003	4.1579	6.8100	51.619	20.706	29.939	1589.4	-0.43953	9.1216	0.19856
247.12	40.146	undefined	4.1919	6.8629	51.757	30.300	0.033003	4.1919	6.8629	51.757	20.731	29.951	1594.4	-0.44110	9.1565	0.19948	30.300	0.033003	4.1919	6.8629	51.757	20.731	29.951	1594.4	-0.44110	9.1565	0.19948
248.76	40.430	undefined	4.2260	6.9158	51.894	30.300	0.033003	4.2260	6.9158	51.894	20.756	29.962	1599.4	-0.44263	9.1914	0.20041	30.300	0.033003	4.2260	6.9158	51.894	20.756	29.962	1599.4	-0.44263	9.1914	0.20041
250.40	40.714	undefined	4.2601	6.9688	52.031	30.300	0.033003	4.2601	6.9688	52.031	20.780	29.972	1604.3	-0.44414	9.2262	0.20133	30.300	0.033003	4.2601	6.9688	52.031	20.780	29.972	1604.3	-0.44414	9.2262	0.20133
252.04	40.997	undefined	4.2942	7.0218	52.167	30.300	0.033003	4.2942	7.0218	52.167	20.804	29.983	1609.2	-0.44562	9.2610	0.20225	30.300	0.033003	4.2942	7.0218	52.167	20.804	29.983	1609.2	-0.44562	9.2610	0.20225
253.68	41.280	undefined	4.3284	7.0748	52.302	30.300	0.033003	4.3284	7.0748	52.302	20.827	29.993	1614.1	-0.44708	9.2957	0.20317	30.300	0.033003	4.3284	7.0748	52.302	20.827	29.993	1614.1	-0.44708	9.2957	0.20317
255.33	41.564	undefined	4.3626	7.1278	52.436	30.300	0.033003	4.3626	7.1278	52.436	20.850	30.002	1619.0	-0.44852	9.3304	0.20408	30.300	0.033003	4.3626	7.1278	52.436	20.850	30.002	1619.0	-0.44852	9.3304	0.20408
256.97	41.847	undefined	4.3968	7.1809	52.570	30.300	0.033003	4.3968	7.1809	52.570	20.872	30.012	1623.9	-0.44993	9.3650	0.20499	30.300	0.033003	4.3968	7.1809	52.570	20.872	30.012	1623.9	-0.44993	9.3650	0.20499
258.61	42.130	undefined	4.4311	7.2340	52.703	30.300	0.033003	4.4311	7.2340	52.703	20.893	30.020	1628.8	-0.45132	9.3996	0.20589	30.300	0.033003	4.4311	7.2340	52.703	20.893	30.020	1628.8	-0.45132	9.3996	0.20589
260.25	42.412	undefined	4.4654	7.2871	52.835	30.300	0.033003	4.4654	7.2871	52.835	20.914	30.029	1633.6	-0.45269	9.4341	0.20679	30.300	0.033003	4.4654	7.2871	52.835	20.914	30.029	1633.6	-0.45269	9.4341	0.20679
261.89	42.695	undefined	4.4998	7.3403	52.967	30.300	0.033003	4.4998	7.3403	52.967	20.935	30.037	1638.5	-0.45404	9.4686	0.20769	30.300	0.033003	4.4998	7.3403	52.967	20.935	30.037	1638.5	-0.45404	9.4686	0.20769
263.53	42.977	undefined	4.5342	7.3935	53.098	30.300	0.033003	4.5342	7.3935	53.098	20.955	30.045	1643.3	-0.45537	9.5030	0.20859	30.300	0.033003	4.5342	7.3935	53.098	20.955	30.045	1643.3	-0.45537	9.5030	0.20859
265.18	43.260	undefined	4.5686	7.4467	53.228	30.300	0.033003	4.5686	7.4467	53.228	20.974	30.053	1648.1	-0.45667	9.5374	0.20948	30.300	0.033003	4.5686	7.4467	53.228	20.974	30.053	1648.1	-0.45667	9.5374	0.20948
266.82	43.542	undefined	4.6030	7.4999	53.357	30.300	0.033003	4.6030	7.4999	53.357	20.994	30.060	1652.8	-0.45796	9.5717	0.21037	30.300	0.033003	4.6030	7.4999	53.357	20.994	30.060	1652.8	-0.45796	9.5717	0.21037
268.46	43.824	undefined	4.6375	7.5531	53.486	30.300	0.033003	4.6375	7.5531	53.486	21.012	30.067	1657.6	-0.45923	9.6060	0.21126	30.300	0.033003	4.6375	7.5531	53.486	21.012	30.067	1657.6	-0.45923	9.6060	0.21126
270.10	44.106	undefined	4.6720	7.6064	53.614	30.300	0.033003	4.6720	7.6064	53.614	21.030	30.074	1662.4	-0.46047	9.6403	0.21214	30.300	0.033003	4.6720	7.6064	53.614	21.030	30.074	1662.4	-0.46047	9.6403	0.21214
271.74	44.387	undefined	4.7066	7.6597	53.742	30.300	0.033003	4.7066	7.6597	53.742	21.048	30.081	1667.1	-0.46170	9.6745	0.21302	30.300	0.033003	4.7066	7.6597	53.742	21.048	30.081	1667.1	-0.46170	9.6745	0.21302
273.38	44.669	undefined	4.7411	7.7130	53.869	30.300	0.033003	4.7411	7.7130	53.869	21.066	30.087	1671.8	-0.46291	9.7086	0.21390	30.300	0.033003	4.7411	7.7130	53.869	21.066	30.087	1671.8	-0.46291	9.7086	0.21390
275.03	44.950	undefined	4.7757	7.7663	53.995	30.300	0.033003	4.7757	7.7663	53.995	21.083	30.093	1676.5	-0.46411	9.7427	0.21477	30.300	0.033003	4.7757	7.7663	53.995	21.083	30.093	1676.5	-0.46411	9.7427	0.21477
276.67	45.232	undefined	4.8103	7.8196	54.120	30.300	0.033003	4.8103	7.8196	54.120	21.099	30.098	1681.2	-0.46529	9.7768	0.21564	30.300	0.033003	4.8103	7.8196	54.120	21.099	30.098	1681.2	-0.46529	9.7768	0.21564
278.31	45.513	undefined	4.8450	7.8730	54.245	30.300	0.033003	4.8450	7.8730	54.245	21.115	30.104	1685.9	-0.46645	9.8108	0.21651	30.300	0.033003	4.8450	7.8730	54.245	21.115	30.104	1685.9	-0.46645	9.8108	0.21651
279.95	45.794	undefined	4.8797	7.9264	54.369	30.300	0.033003	4.8797	7.9264	54.369	21.131	30.109	1690.6	-0.46759	9.8447	0.21738	30.300	0.033003	4.8797	7.9264	54.369	21.131	30.109	1690.6	-0.46759	9.8447	0.21738
281.59	46.075	undefined	4.9144	7.9798	54.493	30.300	0.033003	4.9144	7.9798	54.493	21.146	30.114	1695.2	-0.46872	9.8787	0.21824	30.300	0.033003	4.9144	7.9798	54.493	21.146	30.114	1695.2	-0.46872	9.8787	0.21824
283.23	46.356	undefined	4.9491	8.0332	54.616	30.300	0.033003	4.9491	8.0332	54.616	21.161	30.118	1699.9	-0.46983	9.9126	0.21910	30.300	0.033003	4.9491	8.0332	54.616	21.161	30.118	1699.9	-0.46983	9.9126	0.21910
284.88	46.636	undefined	4.9838	8.0866	54.738	30.300	0.033003	4.9838	8.0866	54.738	21.176	30.123	1704.5	-0.47093	9.9464	0.21996	30.300	0.033003	4.9838	8.0866	54.738	21.176	30.123	1704.5	-0.47093	9.9464	0.21996
286.52	46.917	undefined	5.0186	8.1400	54.860	30.300	0.033003	5.0186	8.1400	54.860	21.190	30.127	1709.1	-0.47201	9.9802	0.22081	30.300	0.033003	5.0186	8.1400	54.860	21.190	30.127	1709.1	-0.47201	9.9802	0.22081
288.16	47.197	undefined	5.0534	8.1935	54.981	30.300	0.033003	5.0534	8.1935	54.981	21.204	30.131	1713.7	-0.47308	10.014	0.22166	30.300	0.033003	5.0534	8.1935	54.981	21.204	30.131	1713.7	-0.47308	10.014	0.22166
289.80	47.478	undefined	5.0882	8.2470	55.102	30.300	0.033003	5.0882	8.2470	55.102	21.217	30.134	1718.3	-0.47413	10.048	0.22251	30.300	0.033003	5.0882	8.2470	55.102	21.217	30.134	1718.3	-0.47413	10.048	0.22251
291.44	47.758	undefined	5.1231	8.3004	55.221	30.300	0.033003	5.1231	8.3004	55.221	21.230	30.138	1722.9	-0.47517	10.081	0.22336	30.300	0.033003	5.1231	8.3004	55.221	21.230	30.138	1722.9	-0.47517	10.081	0.22336
293.08	48.038	undefined	5.1579	8.3539	55.341	30.300	0.033003	5.1579	8.3539	55.341	21.243	30.141	1727.4	-0.47619	10.115	0.22420	30.300	0.033003	5.1579	8.3539	55.341	21.243	30.141	1727.4	-0.47619	10.115	0.22420
294.73	48.318	undefined	5.1928	8.4074	55.459	30.300	0.033003	5.1928	8.4074	55.459	21.256	30.144	1732.0	-0.47720	10.149	0.22504	30.300	0.033003	5.1928	8.4074	55.459	21.256	30.144	1732.0	-0.47720	10.149	0.22504
296.37	48.597	undefined	5.2277	8.4610	55.578	30.300	0.033003	5.2277	8.4610	55.578	21.268	30.147	1736.5	-0.47820	10.182	0.22588	30.300	0.033003	5.2277	8.4610	55.578	21.268	30.147	1736.5	-0.47820	10.182	0.22588
298.01	48.877	undefined	5.2627	8.5145	55.695	30.300	0.033003	5.2627	8.5145	55.695	21.280	30.149	1741.0	-0.47919	10.216	0.22672	30.300	0.033003	5.2627	8.5145	55.695	21.280	30.149	1741.0	-0.47919	10.216	0.22672
299.65	49.157	undefined	5.2976	8.5680	55.812	30.300	0.033003	5.2976	8.5680	55.812	21.291	30.152	1745.5	-0.48016	10.249	0.22755	30.300	0.033003	5.2976	8.5680	55.812	21.291	30.152	1745.5	-0.48016	10.249	0.22755
301.29	49.436	undefined	5.3326	8.6216	55.928	30.300	0.033003	5.3326	8.6216	55.928	21.302	30.154	1750.0	-0.48112	10.283	0.22838	30.300	0.033003	5.3326	8.6216	55.928	21.302	30.154	1750.0	-0.48112	10.283	0.22838
302.93	49.715	undefined	5.3676	8.6751	56.044	30.300	0.033003	5.3676	8.6751	56.044	21.313	30.156	1754.5	-0.48207	10.316	0.22921	30.300	0.033003	5.3676	8.6751	56.044	21.313	30.156	1754.5	-0.48207	10.316	0.22921
304.58	49.994	undefined	5.4025	8.7287	56.159	30.300	0.033003	5.4025	8.7287	56.159	21.324	30.158	1759.0	-0.48301	10.349	0.23004	30.300	0.033003	5.4025	8.7287	56.159	21.324	30.158	1759.0	-0.48301	10.349	0.23004
306.22	50.273	undefined	5.4376	8.7823	56.274	30.300	0.033003	5.4376	8.7823	56.274	21.334	30.159	1763.4	-0.48393	10.383	0.23086	30.300	0.033003	5.4376	8.7823	56.274	21.334	30.159	1763.4	-0.48393	10.383	0.23086
307.86	50.552	undefined	5.4726	8.8359	56.388	30.300	0.033003	5.4726	8.8359	56.388	21.345	30.161	1767.9	-0.48484	10.416	0.23168	30.300	0.033003	5.4726	8.8359	56.388	21.345	30.161	1767.9	-0.48484	10.416	0.23168
309.50	50.831	undefined	5.5076	8.8895	56.502	30.300	0.033003	5.5076	8.8895	56.502	21.354	30.162	1772.3	-0.48574	10.449	0.23250	30.300	0.033003	5.5076	8.8895	56.502	21.354	30.162	1772.3	-0.48574	10.449	0.23250
311.14	51.110	undefined	5.5427	8.9431	56.615	30.300	0.033003	5.5427	8.9431	56.615	21.364	30.163	1776.7	-0.48663	10.482	0.23332	30.300	0.033003	5.5427	8.9431	56.615	21.364	30.163	1776.7	-0.48663	10.482	0.23332
312.78	51.388	undefined	5.5778	8.9967	56.727	30.300	0.033003	5.5778	8.9967	56.727	21.373	30.164	1781.1	-0.48751	10.516	0.23413	30.300	0.033003	5.5778	8.9967	56.727	21.373	30.164	1781.1	-0.48751	10.516	0.23413
314.43	51.667	undefined	5.6129	9.0503	56.839	30.300	0.033003	5.6129	9.0503	56.839	21.382	30.165	1785.5	-0.48838	10.549	0.23495	30.300	0.033003	5.6129	9.0503	56.839	21.382	30.165	1785.5	-0.48838	10.549	0.23495
316.07	51.945	undefined	5.6480	9.1039	56.950	30.300	0.033003	5.6480	9.1039	56.950	21.391	30.165	1789.9	-0.48924	10.582	0.23576	30.300	0.033003	5.6480	9.1039	56.950	21.391	30.165	1789.9	-0.48924	10.582	0.23576
317.71	52.223	undefined	5.6831	9.1576	57.061	30.300	0.033003	5.6831	9.1576	57.061	21.400	30.166	1794.3	-0.49009	10.615	0.23657	30.300	0.033003	5.6831	9.1576	57.061	21.400	30.166	1794.3	-0.49009	10.615	0.23657
319.35	52.501	undefined	5.7183	9.2112	57.172	30.300	0.033003	5.7183	9.2112	57.172	21.408	30.166	1798.6	-0.49093	10.648	0.23737	30.300	0.033003	5.7183	9.2112	57.172	21.408	30.166	1798.6	-0.49093	10.648	0.23737
320.99	52.779	undefined	5.7534	9.2648	57.281	30.300	0.033003	5.7534	9.2648	57.281	21.416	30.166	1803.0	-0.49175	10.681	0.23818	30.300	0.033003	5.7534	9.2648	57.281	21.416	30.166	1803.0	-0.49175	10.681	0.23818
322.63	53.057	undefined	5.7886	9.3185	57.391	30.300	0.033003	5.7886	9.3185	57.391	21.424	30.166	1807.3	-0.49257	10.714	0.23898	30.300	0.033003	5.7886	9.3185	57.391	21.424	30.166	1807.3	-0.49257	10.714	0.23898
324.28	53.335	undefined	5.8237	9.3721	57.499	30.300	0.033003	5.8237	9.3721	57.499	21.431	30.166	1811.6	-0.49338	10.747	0.23978	30.300	0.033003	5.8237	9.3721	57.499	21.431	30.166	1811.6	-0.49338	10.747	0.23978
325.92	53.612	undefined	5.8589	9.4258	57.608	30.300	0.033003	5.8589	9.4258	57.608	21.439	30.166	1815.9	-0.49418	10.780	0.24058	30.300	0.033003	5.8589	9.4258	57.608	21.439	30.166	1815.9	-0.49418	10.780	0.24058
327.56	53.890	undefined	5.8941	9.4795	57.715	30.300	0.033003	5.8941	9.4795	57.715	21.446	30.166	1820.2	-0.49497	10.813	0.24137	30.300	0.033003	5.8941	9.4795	57.715	21.446	30.166	1820.2	-0.49497	10.813	0.24137
329.20	54.167	undefined	5.9294	9.5331	57.823	30.300	0.033003	5.9294	9.5331	57.823	21.453	30.165	1824.5	-0.49575	10.845	0.24216	30.300	0.033003	5.9294	9.5331	57.823	21.453	30.165	1824.5	-0.49575	10.845	0.24216
330.84	54.444	undefined	5.9646	9.5868	57.929	30.300	0.033003	5.9646	9.5868	57.929	21.460	30.165	1828.8	-0.49652	10.878	0.24296	30.300	0.033003	5.9646	9.5868	57.929	21.460	30.165	1828.8	-0.49652	10.878	0.24296
332.48	54.721	undefined	5.9998	9.6405	58.036	30.300	0.033003	5.9998	9.6405	58.036	21.466	30.164	1833.1	-0.49728	10.911	0.24375	30.300	0.033003	5.9998	9.6405	58.036	21.466	30.164	1833.1	-0.49728	10.911	0.24375
334.13	54.998	undefined	6.0351	9.6941	58.141	30.300	0.033003	6.0351	9.6941	58.141	21.473	30.163	1837.3	-0.49804	10.944	0.24453	30.300	0.033003	6.0351	9.6941	58.141	21.473	30.163	1837.3	-0.49804	10.944	0.24453
335.77	55.275	undefined	6.0703	9.7478	58.247	30.300	0.033003	6.0703	9.7478	58.247	21.479	30.162	1841.5	-0.49878	10.976	0.24532	30.300	0.033003	6.0703	9.7478	58.247	21.479	30.162	1841.5	-0.49878	10.976	0.24532
337.41	55.552	undefined	6.1056	9.8015	58.351	30.300	0.033003	6.1056	9.8015	58.351	21.485	30.161	1845.8	-0.49952	11.009	0.24610	30.300	0.033003	6.1056	9.8015	58.351	21.485	30.161	1845.8	-0.49952	11.009	0.24610
339.05	55.829	undefined	6.1409	9.8552	58.456	30.300	0.033003	6.1409	9.8552	58.456	21.491	30.160	1850.0	-0.50025	11.042	0.24689	30.300	0.033003	6.1409	9.8552	58.456	21.491	30.160	1850.0	-0.50025	11.042	0.24689
340.69	56.105	undefined	6.1761	9.9089	58.559	30.300	0.033003	6.1761	9.9089	58.559	21.497	30.159	1854.2	-0.50097	11.074	0.24767	30.300	0.033003	6.1761	9.9089	58.559	21.497	30.159	1854.2	-0.50097	11.074	0.24767
342.33	56.382	undefined	6.2114	9.9626	58.663	30.300	0.033003	6.2114	9.9626	58.663	21.502	30.157	1858.4	-0.50168	11.107	0.24844	30.300	0.033003	6.2114	9.9626	58.663	21.502	30.157	1858.4	-0.50168	11.107	0.24844
343.98	56.658	undefined	6.2467	10.016	58.766	30.300	0.033003	6.2467	10.016	58.766	21.507	30.156	1862.6	-0.50238	11.140	0.24922	30.300	0.033003	6.2467	10.016	58.766	21.507	30.156	1862.6	-0.50238	11.140	0.24922
345.62	56.935	undefined	6.2821	10.070	58.868	30.300	0.033003	6.2821	10.070	58.868	21.513	30.154	1866.8	-0.50308	11.172	0.25000	30.300	0.033003	6.2821	10.070	58.868	21.513	30.154	1866.8	-0.50308	11.172	0.25000
347.26	57.211	undefined	6.3174	10.124	58.970	30.300	0.033003	6.3174	10.124	58.970	21.518	30.153	1870.9	-0.50377	11.205	0.25077	30.300	0.033003	6.3174	10.124	58.970	21.518	30.153	1870.9	-0.50377	11.205	0.25077
348.90	57.487	undefined	6.3527	10.177	59.072	30.300	0.033003	6.3527	10.177	59.072	21.522	30.151	1875.1	-0.50445	11.237	0.25154	30.300	0.033003	6.3527	10.177	59.072	21.522	30.151	1875.1	-0.50445	11.237	0.25154
350.54	57.763	undefined	6.3880	10.231	59.173	30.300	0.033003	6.3880	10.231	59.173	21.527	30.149	1879.2	-0.50512	11.269	0.25231	30.300	0.033003	6.3880	10.231	59.173	21.527	30.149	1879.2	-0.50512	11.269	0.25231
352.18	58.039	undefined	6.4234	10.285	59.273	30.300	0.033003	6.4234	10.285	59.273	21.532	30.147	1883.3	-0.50578	11.302	0.25308	30.300	0.033003	6.4234	10.285	59.273	21.532	30.147	1883.3	-0.50578	11.302	0.25308
353.83	58.314	undefined	6.4587	10.338	59.373	30.300	0.033003	6.4587	10.338	59.373	21.536	30.145	1887.5	-0.50644	11.334	0.25385	30.300	0.033003	6.4587	10.338	59.373	21.536	30.145	1887.5	-0.50644	11.334	0.25385
355.47	58.590	undefined	6.4941	10.392	59.473	30.300	0.033003	6.4941	10.392	59.473	21.541	30.143	1891.6	-0.50709	11.366	0.25461	30.300	0.033003	6.4941	10.392	59.473	21.541	30.143	1891.6	-0.50709	11.366	0.25461
357.11	58.866	undefined	6.5295	10.446	59.572	30.300	0.033003	6.5295	10.446	59.572	21.545	30.141	1895.7	-0.50774	11.399	0.25537	30.300	0.033003	6.5295	10.446	59.572	21.545	30.141	1895.7	-0.50774	11.399	0.25537
358.75	59.141	undefined	6.5648	10.500	59.671	30.300	0.033003	6.5648	10.500	59.671	21.549	30.139	1899.8	-0.50837	11.431	0.25613	30.300	0.033003	6.5648	10.500	59.671	21.549	30.139	1899.8	-0.50837	11.431	0.25613
360.39	59.416	undefined	6.6002	10.553	59.770	30.300	0.033003	6.6002	10.553	59.770	21.553	30.137	1903.8	-0.50900	11.463	0.25689	30.300	0.033003	6.6002	10.553	59.770	21.553	30.137	1903.8	-0.50900	11.463	0.25689
362.03	59.692	undefined	6.6356	10.607	59.867	30.300	0.033003	6.6356	10.607	59.867	21.556	30.135	1907.9	-0.50963	11.496	0.25765	30.300	0.033003	6.6356	10.607	59.867	21.556	30.135	1907.9	-0.50963	11.496	0.25765
363.67	59.967	undefined	6.6710	10.661	59.965	30.300	0.033003	6.6710	10.661	59.965	21.560	30.132	1912.0	-0.51024	11.528	0.25841	30.300	0.033003	6.6710	10.661	59.965	21.560	30.132	1912.0	-0.51024	11.528	0.25841
365.32	60.242	undefined	6.7064	10.714	60.062	30.300	0.033003	6.7064	10.714	60.062	21.564	30.130	1916.0	-0.51085	11.560	0.25917	30.300	0.033003	6.7064	10.714	60.062	21.564	30.130	1916.0	-0.51085	11.560	0.25917
366.96	60.517	undefined	6.7418	10.768	60.159	30.300	0.033003	6.7418	10.768	60.159	21.567	30.127	1920.1	-0.51145	11.592	0.25992	30.300	0.033003	6.7418	10.768	60.159	21.567	30.127	1920.1	-0.51145	11.592	0.25992
368.60	60.792	undefined	6.7772	10.822	60.255	30.300	0.033003	6.7772	10.822	60.255	21.570	30.125	1924.1	-0.51205	11.624	0.26067	30.300	0.033003	6.7772	10.822	60.255	21.570	30.125	1924.1	-0.51205	11.624	0.26067
370.24	61.066	undefined	6.8126	10.875	60.351	30.300	0.033003	6.8126	10.875	60.351	21.574	30.122	1928.1	-0.51264	11.656	0.26142	30.300	0.033003	6.8126	10.875	60.351	21.574	30.122	1928.1	-0.51264	11.656	0.26142
371.88	61.341	undefined	6.8480	10.929	60.446	30.300	0.033003	6.8480	10.929	60.446	21.577	30.120	1932.1	-0.51322	11.688	0.26217	30.300	0.033003	6.8480	10.929	60.446	21.577	30.120	1932.1	-0.51322	11.688	0.26217
373.52	61.616	undefined	6.8835	10.983	60.541	30.300	0.033003	6.8835	10.983	60.541	21.580	30.117	1936.1	-0.51380	11.720	0.26292	30.300	0.033003	6.8835	10.983	60.541	21.580	30.117	1936.1	-0.51380	11.720	0.26292
375.17	61.890	undefined	6.9189	11.036	60.636	30.300	0.033003	6.9189	11.036	60.636	21.583	30.114	1940.1	-0.51437	11.752	0.26367	30.300	0.033003	6.9189	11.036	60.636	21.583	30.114	1940.1	-0.51437	11.752	0.26367
376.81	62.164	undefined	6.9543	11.090	60.730	30.300	0.033003	6.9543	11.090	60.730	21.586	30.111	1944.1	-0.51493	11.784	0.26441	30.300	0.033003	6.9543	11.090	60.730	21.586	30.111	1944.1	-0.51493	11.784	0.26441
378.45	62.439	undefined	6.9898	11.144	60.824	30.300	0.033003	6.9898	11.144	60.824	21.588	30.109	1948.1	-0.51549	11.816	0.26516	30.300	0.033003	6.9898	11.144	60.824	21.588	30.109	1948.1	-0.51549	11.816	0.26516
380.09	62.713	undefined	7.0252	11.198	60.918	30.300	0.033003	7.0252	11.198	60.918	21.591	30.106	1952.0	-0.51604	11.848	0.26590	30.300	0.033003	7.0252	11.198	60.918	21.591	30.106	1952.0	-0.51604	11.848	0.26590
381.73	62.987	undefined	7.0606	11.251	61.011	30.300	0.033003	7.0606	11.251	61.011	21.594	30.103	1956.0	-0.51659	11.880	0.26664	30.300	0.033003	7.0606	11.251	61.011	21.594	30.103	1956.0	-0.51659	11.880	0.26664
383.37	63.261	undefined	7.0961	11.305	61.103	30.300	0.033003	7.0961	11.305	61.103	21.596	30.100	1959.9	-0.51713	11.912	0.26738	30.300	0.033003	7.0961	11.305	61.103	21.596	30.100	1959.9	-0.51713	11.912	0.26738
385.02	63.535	undefined	7.1316	11.359	61.196	30.300	0.033003	7.1316	11.359	61.196	21.598	30.097	1963.8	-0.51766	11.944	0.26812	30.300	0.033003	7.1316	11.359	61.196	21.598	30.097	1963.8	-0.51766	11.944	0.26812
386.66	63.808	undefined	7.1670	11.412	61.288	30.300	0.033003	7.1670	11.412	61.288	21.601	30.094	1967.8	-0.51819	11.976	0.26885	30.300	0.033003	7.1670	11.412	61.288	21.601	30.094	1967.8	-0.51819	11.976	0.26885
388.30	64.082	undefined	7.2025	11.466	61.379	30.300	0.033003	7.2025	11.466	61.379	21.603	30.091	1971.7	-0.51872	12.007	0.26959	30.300	0.033003	7.2025	11.466	61.379	21.603	30.091	1971.7	-0.51872	12.007	0.26959
389.94	64.356	undefined	7.2379	11.520	61.470	30.300	0.033003	7.2379	11.520	61.470	21.605	30.088	1975.6	-0.51923	12.039	0.27033	30.300	0.033003	7.2379	11.520	61.470	21.605	30.088	1975.6	-0.51923	12.039	0.27033
391.58	64.629	undefined	7.2734	11.573	61.561	30.300	0.033003	7.2734	11.573	61.561	21.607	30.085	1979.5	-0.51974	12.071	0.27106	30.300	0.033003	7.2734	11.573	61.561	21.607	30.085	1979.5	-0.51974	12.071	0.27106
393.22	64.903	undefined	7.3089	11.627	61.651	30.300	0.033003	7.3089	11.627	61.651	21.609	30.082	1983.3	-0.52025	12.103	0.27179	30.300	0.033003	7.3089	11.627	61.651	21.609	30.082	1983.3	-0.52025	12.103	0.27179
394.87	65.176	undefined	7.3444	11.681	61.741	30.300	0.033003	7.3444	11.681	61.741	21.611	30.079	1987.2	-0.52075	12.134	0.27252	30.300	0.033003	7.3444	11.681	61.741	21.611	30.079	1987.2	-0.52075	12.134	0.27252
396.51	65.449	undefined	7.3798	11.734	61.831	30.300	0.033003	7.3798	11.734	61.831	21.613	30.076	1991.1	-0.52125	12.166	0.27325	30.300	0.033003	7.3798	11.734	61.831	21.613	30.076	1991.1	-0.52125	12.166	0.27325
398.15	65.722	undefined	7.4153	11.788	61.920	30.300	0.033003	7.4153	11.788	61.920	21.615	30.072	1994.9	-0.52174	12.198	0.27398	30.300	0.033003	7.4153	11.788	61.920	21.615	30.072	1994.9	-0.52174	12.198	0.27398
399.79	65.995	undefined	7.4508	11.842	62.009	30.300	0.033003	7.4508	11.842	62.009	21.617	30.069	1998.8	-0.52222	12.229	0.27471	30.300	0.033003	7.4508	11.842	62.009	21.617	30.069	1998.8	-0.52222	12.229	0.27471
401.43	66.268	undefined	7.4863	11.895	62.098	30.300	0.033003	7.4863	11.895	62.098	21.618	30.066	2002.6	-0.52270	12.261	0.27543	30.300	0.033003	7.4863	11.895	62.098	21.618	30.066	2002.6	-0.52270	12.261	0.27543
403.07	66.541	undefined	7.5218	11.949	62.186	30.300	0.033003	7.5218	11.949	62.186	21.620	30.063	2006.5	-0.52318	12.292	0.27616	30.300	0.033003	7.5218	11.949	62.186	21.620	30.063	2006.5	-0.52318	12.292	0.27616
404.72	66.814	undefined	7.5573	12.002	62.274	30.300	0.033003	7.5573	12.002	62.274	21.622	30.060	2010.3	-0.52364	12.324	0.27688	30.300	0.033003	7.5573	12.002	62.274	21.622	30.060	2010.3	-0.52364	12.324	0.27688
406.36	67.087	undefined	7.5928	12.056	62.362	30.300	0.033003	7.5928	12.056	62.362	21.623	30.056	2014.1	-0.52411	12.356	0.27761	30.300	0.033003	7.5928	12.056	62.362	21.623	30.056	2014.1	-0.52411	12.356	0.27761
408.00	67.359	undefined	7.6283	12.110	62.449	30.300	0.033003	7.6283	12.110	62.449	21.625	30.053	2017.9	-0.52457	12.387	0.27833	30.300	0.033003	7.6283	12.110	62.449	21.625	30.053	2017.9	-0.52457	12.387	0.27833
409.64	67.632	undefined	7.6638	12.163	62.536	30.300	0.033003	7.6638	12.163	62.536	21.626	30.050	2021.7	-0.52502	12.418	0.27905	30.300	0.033003	7.6638	12.163	62.536	21.626	30.050	2021.7	-0.52502	12.418	0.27905
411.28	67.904	undefined	7.6993	12.217	62.622	30.300	0.033003	7.6993	12.217	62.622	21.627	30.047	2025.5	-0.52547	12.450	0.27977	30.300	0.033003	7.6993	12.217	62.622	21.627	30.047	2025.5	-0.52547	12.450	0.27977
412.92	68.177	undefined	7.7348	12.271	62.708	30.300	0.033003	7.7348	12.271	62.708	21.629	30.043	2029.2	-0.52592	12.481	0.28049	30.300	0.033003	7.7348	12.271	62.708	21.629	30.043	2029.2	-0.52592	12.481	0.28049
414.57	68.449	undefined	7.7703	12.324	62.794	30.300	0.033003	7.7703	12.324	62.794	21.630	30.040	2033.0	-0.52635	12.513	0.28120	30.300	0.033003	7.7703	12.324	62.794	21.630	30.040	2033.0	-0.52635	12.513	0.28120
416.21	68.721	undefined	7.8058	12.378	62.880	30.300	0.033003	7.8058	12.378	62.880	21.631	30.037	2036.8	-0.52679	12.544	0.28192	30.300	0.033003	7.8058	12.378	62.880	21.631	30.037	2036.8	-0.52679	12.544	0.28192
417.85	68.993	undefined	7.8413	12.431	62.965	30.300	0.033003	7.8413	12.431	62.965	21.633	30.034	2040.5	-0.52722	12.576	0.28264	30.300	0.033003	7.8413	12.431	62.965	21.633	30.034	2040.5	-0.52722	12.576	0.28264
419.49	69.265	undefined	7.8768	12.485	63.050	30.300	0.033003	7.8768	12.485	63.050	21.634	30.030	2044.3	-0.52764	12.607	0.28335	30.300	0.033003	7.8768	12.485	63.050	21.634	30.030	2044.3	-0.52764	12.607	0.28335
421.13	69.537	undefined	7.9124	12.539	63.134	30.300	0.033003	7.9124	12.539	63.134	21.635	30.027	2048.0	-0.52807	12.638	0.28406	30.300	0.033003	7.9124	12.539	63.134	21.635	30.027	2048.0	-0.52807	12.638	0.28406
422.77	69.809	undefined	7.9479	12.592	63.218	30.300	0.033003	7.9479	12.592	63.218	21.636	30.024	2051.7	-0.52848	12.670	0.28478	30.300	0.033003	7.9479	12.592	63.218	21.636	30.024	2051.7	-0.52848	12.670	0.28478
424.42	70.081	undefined	7.9834	12.646	63.302	30.300	0.033003	7.9834	12.646	63.302	21.637	30.020	2055.4	-0.52889	12.701	0.28549	30.300	0.033003	7.9834	12.646	63.302	21.637	30.020	2055.4	-0.52889	12.701	0.28549
426.06	70.352	undefined	8.0189	12.700	63.386	30.300	0.033003	8.0189	12.700	63.386	21.638	30.017	2059.1	-0.52930	12.732	0.28620	30.300	0.033003	8.0189	12.700	63.386	21.638	30.017	2059.1	-0.52930	12.732	0.28620
427.70	70.624	undefined	8.0544	12.753	63.469	30.300	0.033003	8.0544	12.753	63.469	21.639	30.014	2062.8	-0.52970	12.763	0.28691	30.300	0.033003	8.0544	12.753	63.469	21.639	30.014	2062.8	-0.52970	12.763	0.28691
429.34	70.895	undefined	8.0900	12.807	63.552	30.300	0.033003	8.0900	12.807	63.552	21.640	30.011	2066.5	-0.53010	12.795	0.28762	30.300	0.033003	8.0900	12.807	63.552	21.640	30.011	2066.5	-0.53010	12.795	0.28762
430.98	71.167	undefined	8.1255	12.860	63.634	30.300	0.033003	8.1255	12.860	63.634	21.641	30.007	2070.2	-0.53049	12.826	0.28833	30.300	0.033003	8.1255	12.860	63.634	21.641	30.007	2070.2	-0.53049	12.826	0.28833
432.62	71.438	undefined	8.1610	12.914	63.717	30.300	0.033003	8.1610	12.914	63.717	21.642	30.004	2073.9	-0.53088	12.857	0.28903	30.300	0.033003	8.1610	12.914	63.717	21.642	30.004	2073.9	-0.53088	12.857	0.28903
434.27	71.709	undefined	8.1965	12.967	63.799	30.300	0.033003	8.1965	12.967	63.799	21.643	30.001	2077.5	-0.53127	12.888	0.28974	30.300	0.033003	8.1965	12.967	63.799	21.643	30.001	2077.5	-0.53127	12.888	0.28974
435.91	71.981	undefined	8.2321	13.021	63.880	30.300	0.033003	8.2321	13.021	63.880	21.644	29.998	2081.2	-0.53165	12.919	0.29044	30.300	0.033003	8.2321	13.021	63.880	21.644	29.998	2081.2	-0.53165	12.919	0.29044
437.55	72.252	undefined	8.2676	13.075	63.962	30.300	0.033003	8.2676	13.075	63.962	21.645	29.994	2084.8	-0.53203	12.950	0.29115	30.300	0.033003	8.2676	13.075	63.962	21.645	29.994	2084.8	-0.53203	12.950	0.29115
439.19	72.523	undefined	8.3031	13.128	64.043	30.300	0.033003	8.3031	13.128	64.043	21.645	29.991	2088.5	-0.53240	12.982	0.29185	30.300	0.033003	8.3031	13.128	64.043	21.645	29.991	2088.5	-0.53240	12.982	0.29185
440.83	72.794	undefined	8.3387	13.182	64.123	30.300	0.033003	8.3387	13.182	64.123	21.646	29.988	2092.1	-0.53277	13.013	0.29255	30.300	0.033003	8.3387	13.182	64.123	21.646	29.988	2092.1	-0.53277	13.013	0.29255
442.47	73.064	undefined	8.3742	13.235	64.204	30.300	0.033003	8.3742	13.235	64.204	21.647	29.985	2095.7	-0.53313	13.044	0.29326	30.300	0.033003	8.3742	13.235	64.204	21.647	29.985	2095.7	-0.53313	13.044	0.29326
444.12	73.335	undefined	8.4098	13.289	64.284	30.300	0.033003	8.4098	13.289	64.284	21.648	29.982	2099.4	-0.53349	13.075	0.29396	30.300	0.033003	8.4098	13.289	64.284	21.648	29.982	2099.4	-0.53349	13.075	0.29396
445.76	73.606	undefined	8.4453	13.342	64.364	30.300	0.033003	8.4453	13.342	64.364	21.648	29.978	2103.0	-0.53385	13.106	0.29466	30.300	0.033003	8.4453	13.342	64.364	21.648	29.978	2103.0	-0.53385	13.106	0.29466
447.40	73.877	undefined	8.4808	13.396	64.443	30.300	0.033003	8.4808	13.396	64.443	21.649	29.975	2106.6	-0.53420	13.137	0.29536	30.300	0.033003	8.4808	13.396	64.443	21.649	29.975	2106.6	-0.53420	13.137	0.29536
449.04	74.147	undefined	8.5164	13.449	64.523	30.300	0.033003	8.5164	13.449	64.523	21.650	29.972	2110.2	-0.53455	13.168	0.29606	30.300	0.033003	8.5164	13.449	64.523	21.650	29.972	2110.2	-0.53455	13.168	0.29606
450.68	74.418	undefined	8.5519	13.503	64.602	30.300	0.033003	8.5519	13.503	64.602	21.651	29.969	2113.8	-0.53489	13.199	0.29675	30.300	0.033003	8.5519	13.503	64.602	21.651	29.969	2113.8	-0.53489	13.199	0.29675
452.32	74.688	undefined	8.5875	13.556	64.681	30.300	0.033003	8.5875	13.556	64.681	21.651	29.966	2117.3	-0.53523	13.230	0.29745	30.300	0.033003	8.5875	13.556	64.681	21.651	29.966	2117.3	-0.53523	13.230	0.29745
453.97	74.958	undefined	8.6230	13.610	64.759	30.300	0.033003	8.6230	13.610	64.759	21.652	29.963	2120.9	-0.53557	13.261	0.29815	30.300	0.033003	8.6230	13.610	64.759	21.652	29.963	2120.9	-0.53557	13.261	0.29815
455.61	75.228	undefined	8.6585	13.664	64.837	30.300	0.033003	8.6585	13.664	64.837	21.653	29.960	2124.5	-0.53590	13.291	0.29884	30.300	0.033003	8.6585	13.664	64.837	21.653	29.960	2124.5	-0.53590	13.291	0.29884
457.25	75.499	undefined	8.6941	13.717	64.915	30.300	0.033003	8.6941	13.717	64.915	21.653	29.957	2128.0	-0.53623	13.322	0.29954	30.300	0.033003	8.6941	13.717	64.915	21.653	29.957	2128.0	-0.53623	13.322	0.29954
458.89	75.769	undefined	8.7296	13.771	64.993	30.300	0.033003	8.7296	13.771	64.993	21.654	29.954	2131.6	-0.53656	13.353	0.30023	30.300	0.033003	8.7296	13.771	64.993	21.654	29.954	2131.6	-0.53656	13.353	0.30023
460.53	76.039	undefined	8.7652	13.824	65.070	30.300	0.033003	8.7652	13.824	65.070	21.654	29.951	2135.1	-0.53688	13.384	0.30092	30.300	0.033003	8.7652	13.824	65.070	21.654	29.951	2135.1	-0.53688	13.384	0.30092
462.17	76.309	undefined	8.8007	13.878	65.147	30.300	0.033003	8.8007	13.878	65.147	21.655	29.948	2138.6	-0.53720	13.415	0.30162	30.300	0.033003	8.8007	13.878	65.147	21.655	29.948	2138.6	-0.53720	13.415	0.30162
463.82	76.578	undefined	8.8363	13.931	65.224	30.300	0.033003	8.8363	13.931	65.224	21.656	29.945	2142.2	-0.53751	13.446	0.30231	30.300	0.033003	8.8363	13.931	65.224	21.656	29.945	2142.2	-0.53751	13.446	0.30231
465.46	76.848	undefined	8.8718	13.985	65.300	30.300	0.033003	8.8718	13.985	65.300	21.656	29.942	2145.7	-0.53782	13.477	0.30300	30.300	0.033003	8.8718	13.985	65.300	21.656	29.942	2145.7	-0.53782	13.477	0.30300
467.10	77.118	undefined	8.9074	14.038	65.377	30.300	0.033003	8.9074	14.038	65.377	21.657	29.939	2149.2	-0.53813	13.507	0.30369	30.300	0.033003	8.9074	14.038	65.377	21.657	29.939	2149.2	-0.53813	13.507	0.30369
468.74	77.387	undefined	8.9430	14.092	65.453	30.300	0.033003	8.9430	14.092	65.453	21.657	29.936	2152.7	-0.53843	13.538	0.30438	30.300	0.033003	8.9430	14.092	65.453	21.657	29.936	2152.7	-0.53843	13.538	0.30438
470.38	77.657	undefined	8.9785	14.145	65.528	30.300	0.033003	8.9785	14.145	65.528	21.658	29.933	2156.2	-0.53873	13.569	0.30507	30.300	0.033003	8.9785	14.145	65.528	21.658	29.933	2156.2	-0.53873	13.569	0.30507
472.02	77.926	undefined	9.0141	14.199	65.604	30.300	0.033003	9.0141	14.199	65.604	21.659	29.930	2159.7	-0.53903	13.600	0.30576	30.300	0.033003	9.0141	14.199	65.604	21.659	29.930	2159.7	-0.53903	13.600	0.30576
473.67	78.196	undefined	9.0496	14.252	65.679	30.300	0.033003	9.0496	14.252	65.679	21.659	29.927	2163.1	-0.53932	13.630	0.30645	30.300	0.033003	9.0496	14.252	65.679	21.659	29.927	2163.1	-0.53932	13.630	0.30645
475.31	78.465	undefined	9.0852	14.306	65.754	30.300	0.033003	9.0852	14.306	65.754	21.660	29.924	2166.6	-0.53961	13.661	0.30713	30.300	0.033003	9.0852	14.306	65.754	21.660	29.924	2166.6	-0.53961	13.661	0.30713
476.95	78.734	undefined	9.1207	14.359	65.829	30.300	0.033003	9.1207	14.359	65.829	21.660	29.921	2170.1	-0.53989	13.692	0.30782	30.300	0.033003	9.1207	14.359	65.829	21.660	29.921	2170.1	-0.53989	13.692	0.30782
478.59	79.004	undefined	9.1563	14.412	65.903	30.300	0.033003	9.1563	14.412	65.903	21.661	29.918	2173.5	-0.54018	13.722	0.30851	30.300	0.033003	9.1563	14.412	65.903	21.661	29.918	2173.5	-0.54018	13.722	0.30851
480.23	79.273	undefined	9.1919	14.466	65.977	30.300	0.033003	9.1919	14.466	65.977	21.661	29.916	2177.0	-0.54046	13.753	0.30919	30.300	0.033003	9.1919	14.466	65.977	21.661	29.916	2177.0	-0.54046	13.753	0.30919
481.87	79.542	undefined	9.2274	14.519	66.051	30.300	0.033003	9.2274	14.519	66.051	21.662	29.913	2180.4	-0.54073	13.784	0.30988	30.300	0.033003	9.2274	14.519	66.051	21.662	29.913	2180.4	-0.54073	13.784	0.30988
483.52	79.811	undefined	9.2630	14.573	66.125	30.300	0.033003	9.2630	14.573	66.125	21.662	29.910	2183.9	-0.54100	13.814	0.31056	30.300	0.033003	9.2630	14.573	66.125	21.662	29.910	2183.9	-0.54100	13.814	0.31056
485.16	80.080	undefined	9.2985	14.626	66.198	30.300	0.033003	9.2985	14.626	66.198	21.663	29.907	2187.3	-0.54127	13.845	0.31125	30.300	0.033003	9.2985	14.626	66.198	21.663	29.907	2187.3	-0.54127	13.845	0.31125
486.80	80.348	undefined	9.3341	14.680	66.271	30.300	0.033003	9.3341	14.680	66.271	21.664	29.905	2190.7	-0.54154	13.875	0.31193	30.300	0.033003	9.3341	14.680	66.271	21.664	29.905	2190.7	-0.54154	13.875	0.31193
488.44	80.617	undefined	9.3697	14.733	66.344	30.300	0.033003	9.3697	14.733	66.344	21.664	29.902	2194.1	-0.54180	13.906	0.31261	30.300	0.033003	9.3697	14.733	66.344	21.664	29.902	2194.1	-0.54180	13.906	0.31261
490.08	80.886	undefined	9.4052	14.787	66.417	30.300	0.033003	9.4052	14.787	66.417	21.665	29.899	2197.5	-0.54206	13.936	0.31329	30.300	0.033003	9.4052	14.787	66.417	21.665	29.899	2197.5	-0.54206	13.936	0.31329
491.72	81.154	undefined	9.4408	14.840	66.489	30.300	0.033003	9.4408	14.840	66.489	21.665	29.897	2200.9	-0.54232	13.967	0.31398	30.300	0.033003	9.4408	14.840	66.489	21.665	29.897	2200.9	-0.54232	13.967	0.31398
493.37	81.423	undefined	9.4764	14.893	66.562	30.300	0.033003	9.4764	14.893	66.562	21.666	29.894	2204.3	-0.54257	13.998	0.31466	30.300	0.033003	9.4764	14.893	66.562	21.666	29.894	2204.3	-0.54257	13.998	0.31466
495.01	81.691	undefined	9.5119	14.947	66.634	30.300	0.033003	9.5119	14.947	66.634	21.666	29.892	2207.7	-0.54282	14.028	0.31534	30.300	0.033003	9.5119	14.947	66.634	21.666	29.892	2207.7	-0.54282	14.028	0.31534
496.65	81.960	undefined	9.5475	15.000	66.705	30.300	0.033003	9.5475	15.000	66.705	21.667	29.889	2211.1	-0.54307	14.059	0.31602	30.300	0.033003	9.5475	15.000	66.705	21.667	29.889	2211.1	-0.54307	14.059	0.31602
498.29	82.228	undefined	9.5831	15.054	66.777	30.300	0.033003	9.5831	15.054	66.777	21.668	29.887	2214.5	-0.54331	14.089	0.31670	30.300	0.033003	9.5831	15.054	66.777	21.668	29.887	2214.5	-0.54331	14.089	0.31670
499.93	82.496	undefined	9.6186	15.107	66.848	30.300	0.033003	9.6186	15.107	66.848	21.668	29.884	2217.8	-0.54355	14.119	0.31738	30.300	0.033003	9.6186	15.107	66.848	21.668	29.884	2217.8	-0.54355	14.119	0.31738
501.57	82.765	undefined	9.6542	15.161	66.919	30.300	0.033003	9.6542	15.161	66.919	21.669	29.882	2221.2	-0.54379	14.150	0.31805	30.300	0.033003	9.6542	15.161	66.919	21.669	29.882	2221.2	-0.54379	14.150	0.31805
503.22	83.033	undefined	9.6898	15.214	66.990	30.300	0.033003	9.6898	15.214	66.990	21.669	29.879	2224.6	-0.54403	14.180	0.31873	30.300	0.033003	9.6898	15.214	66.990	21.669	29.879	2224.6	-0.54403	14.180	0.31873
504.86	83.301	undefined	9.7254	15.267	67.061	30.300	0.033003	9.7254	15.267	67.061	21.670	29.877	2227.9	-0.54426	14.211	0.31941	30.300	0.033003	9.7254	15.267	67.061	21.670	29.877	2227.9	-0.54426	14.211	0.31941
506.50	83.569	undefined	9.7609	15.321	67.131	30.300	0.033003	9.7609	15.321	67.131	21.671	29.875	2231.2	-0.54449	14.241	0.32009	30.300	0.033003	9.7609	15.321	67.131	21.671	29.875	2231.2	-0.54449	14.241	0.32009
508.14	83.837	undefined	9.7965	15.374	67.201	30.300	0.033003	9.7965	15.374	67.201	21.671	29.872	2234.6	-0.54472	14.271	0.32076	30.300	0.033003	9.7965	15.374	67.201	21.671	29.872	2234.6	-0.54472	14.271	0.32076
509.78	84.104	undefined	9.8321	15.428	67.271	30.300	0.033003	9.8321	15.428	67.271	21.672	29.870	2237.9	-0.54494	14.302	0.32144	30.300	0.033003	9.8321	15.428	67.271	21.672	29.870	2237.9	-0.54494	14.302	0.32144
511.42	84.372	undefined	9.8677	15.481	67.341	30.300	0.033003	9.8677	15.481	67.341	21.672	29.868	2241.2	-0.54516	14.332	0.32212	30.300	0.033003	9.8677	15.481	67.341	21.672	29.868	2241.2	-0.54516	14.332	0.32212
513.07	84.640	undefined	9.9033	15.534	67.410	30.300	0.033003	9.9033	15.534	67.410	21.673	29.865	2244.5	-0.54538	14.363	0.32279	30.300	0.033003	9.9033	15.534	67.410	21.673	29.865	2244.5	-0.54538	14.363	0.32279
514.71	84.908	undefined	9.9388	15.588	67.479	30.300	0.033003	9.9388	15.588	67.479	21.674	29.863	2247.8	-0.54559	14.393	0.32347	30.300	0.033003	9.9388	15.588	67.479	21.674	29.863	2247.8	-0.54559	14.393	0.32347
516.35	85.175	undefined	9.9744	15.641	67.548	30.300	0.033003	9.9744	15.641	67.548	21.674	29.861	2251.1	-0.54580	14.423	0.32414	30.300	0.033003	9.9744	15.641	67.548	21.674	29.861	2251.1	-0.54580	14.423	0.32414
517.99	85.443	undefined	10.010	15.695	67.617	30.300	0.033003	10.010	15.695	67.617	21.675	29.859	2254.4	-0.54601	14.453	0.32481	30.300	0.033003	10.010	15.695	67.617	21.675	29.859	2254.4	-0.54601	14.453	0.32481
519.63	85.710	undefined	10.046	15.748	67.686	30.300	0.033003	10.046	15.748	67.686	21.676	29.857	2257.7	-0.54622	14.484	0.32549	30.300	0.033003	10.046	15.748	67.686	21.676	29.857	2257.7	-0.54622	14.484	0.32549
521.27	85.978	undefined	10.081	15.801	67.754	30.300	0.033003	10.081	15.801	67.754	21.676	29.854	2261.0	-0.54642	14.514	0.32616	30.300	0.033003	10.081	15.801	67.754	21.676	29.854	2261.0	-0.54642	14.514	0.32616
522.92	86.245	undefined	10.117	15.855	67.822	30.300	0.033003	10.117	15.855	67.822	21.677	29.852	2264.3	-0.54663	14.544	0.32683	30.300	0.033003	10.117	15.855	67.822	21.677	29.852	2264.3	-0.54663	14.544	0.32683
524.56	86.512	undefined	10.152	15.908	67.890	30.300	0.033003	10.152	15.908	67.890	21.678	29.850	2267.5	-0.54682	14.574	0.32751	30.300	0.033003	10.152	15.908	67.890	21.678	29.850	2267.5	-0.54682	14.574	0.32751
526.20	86.779	undefined	10.188	15.961	67.958	30.300	0.033003	10.188	15.961	67.958	21.679	29.848	2270.8	-0.54702	14.605	0.32818	30.300	0.033003	10.188	15.961	67.958	21.679	29.848	2270.8	-0.54702	14.605	0.32818
527.84	87.046	undefined	10.224	16.015	68.025	30.300	0.033003	10.224	16.015	68.025	21.679	29.846	2274.1	-0.54721	14.635	0.32885	30.300	0.033003	10.224	16.015	68.025	21.679	29.846	2274.1	-0.54721	14.635	0.32885
529.48	87.313	undefined	10.259	16.068	68.093	30.300	0.033003	10.259	16.068	68.093	21.680	29.844	2277.3	-0.54740	14.665	0.32952	30.300	0.033003	10.259	16.068	68.093	21.680	29.844	2277.3	-0.54740	14.665	0.32952
531.12	87.580	undefined	10.295	16.121	68.160	30.300	0.033003	10.295	16.121	68.160	21.681	29.842	2280.5	-0.54759	14.695	0.33019	30.300	0.033003	10.295	16.121	68.160	21.681	29.842	2280.5	-0.54759	14.695	0.33019
532.77	87.847	undefined	10.330	16.175	68.227	30.300	0.033003	10.330	16.175	68.227	21.682	29.840	2283.8	-0.54778	14.725	0.33086	30.300	0.033003	10.330	16.175	68.227	21.682	29.840	2283.8	-0.54778	14.725	0.33086
534.41	88.114	undefined	10.366	16.228	68.293	30.300	0.033003	10.366	16.228	68.293	21.682	29.838	2287.0	-0.54796	14.756	0.33153	30.300	0.033003	10.366	16.228	68.293	21.682	29.838	2287.0	-0.54796	14.756	0.33153
536.05	88.381	undefined	10.401	16.282	68.360	30.300	0.033003	10.401	16.282	68.360	21.683	29.837	2290.2	-0.54814	14.786	0.33220	30.300	0.033003	10.401	16.282	68.360	21.683	29.837	2290.2	-0.54814	14.786	0.33220
537.69	88.648	undefined	10.437	16.335	68.426	30.300	0.033003	10.437	16.335	68.426	21.684	29.835	2293.5	-0.54832	14.816	0.33287	30.300	0.033003	10.437	16.335	68.426	21.684	29.835	2293.5	-0.54832	14.816	0.33287
539.33	88.914	undefined	10.473	16.388	68.492	30.300	0.033003	10.473	16.388	68.492	21.685	29.833	2296.7	-0.54850	14.846	0.33354	30.300	0.033003	10.473	16.388	68.492	21.685	29.833	2296.7	-0.54850	14.846	0.33354
540.97	89.181	undefined	10.508	16.442	68.558	30.300	0.033003	10.508	16.442	68.558	21.686	29.831	2299.9	-0.54867	14.876	0.33421	30.300	0.033003	10.508	16.442	68.558	21.686	29.831	2299.9	-0.54867	14.876	0.33421
542.62	89.448	undefined	10.544	16.495	68.624	30.300	0.033003	10.544	16.495	68.624	21.686	29.829	2303.1	-0.54884	14.906	0.33488	30.300	0.033003	10.544	16.495	68.624	21.686	29.829	2303.1	-0.54884	14.906	0.33488
544.26	89.714	undefined	10.579	16.548	68.690	30.300	0.033003	10.579	16.548	68.690	21.687	29.828	2306.3	-0.54901	14.936	0.33554	30.300	0.033003	10.579	16.548	68.690	21.687	29.828	2306.3	-0.54901	14.936	0.33554
545.90	89.980	undefined	10.615	16.602	68.755	30.300	0.033003	10.615	16.602	68.755	21.688	29.826	2309.5	-0.54917	14.966	0.33621	30.300	0.033003	10.615	16.602	68.755	21.688	29.826	2309.5	-0.54917	14.966	0.33621
547.54	90.247	undefined	10.651	16.655	68.820	30.300	0.033003	10.651	16.655	68.820	21.689	29.824	2312.6	-0.54934	14.996	0.33688	30.300	0.033003	10.651	16.655	68.820	21.689	29.824	2312.6	-0.54934	14.996	0.33688
549.18	90.513	undefined	10.686	16.708	68.885	30.300	0.033003	10.686	16.708	68.885	21.690	29.823	2315.8	-0.54950	15.026	0.33755	30.300	0.033003	10.686	16.708	68.885	21.690	29.823	2315.8	-0.54950	15.026	0.33755
550.82	90.779	undefined	10.722	16.762	68.950	30.300	0.033003	10.722	16.762	68.950	21.691	29.821	2319.0	-0.54966	15.056	0.33821	30.300	0.033003	10.722	16.762	68.950	21.691	29.821	2319.0	-0.54966	15.056	0.33821
552.47	91.046	undefined	10.758	16.815	69.014	30.300	0.033003	10.758	16.815	69.014	21.692	29.819	2322.2	-0.54981	15.086	0.33888	30.300	0.033003	10.758	16.815	69.014	21.692	29.819	2322.2	-0.54981	15.086	0.33888
554.11	91.312	undefined	10.793	16.868	69.079	30.300	0.033003	10.793	16.868	69.079	21.693	29.818	2325.3	-0.54997	15.116	0.33954	30.300	0.033003	10.793	16.868	69.079	21.693	29.818	2325.3	-0.54997	15.116	0.33954
555.75	91.578	undefined	10.829	16.921	69.143	30.300	0.033003	10.829	16.921	69.143	21.693	29.816	2328.5	-0.55012	15.146	0.34021	30.300	0.033003	10.829	16.921	69.143	21.693	29.816	2328.5	-0.55012	15.146	0.34021
557.39	91.844	undefined	10.864	16.975	69.207	30.300	0.033003	10.864	16.975	69.207	21.694	29.815	2331.6	-0.55027	15.176	0.34088	30.300	0.033003	10.864	16.975	69.207	21.694	29.815	2331.6	-0.55027	15.176	0.34088
559.03	92.110	undefined	10.900	17.028	69.271	30.300	0.033003	10.900	17.028	69.271	21.695	29.813	2334.7	-0.55042	15.206	0.34154	30.300	0.033003	10.900	17.028	69.271	21.695	29.813	2334.7	-0.55042	15.206	0.34154
560.67	92.376	undefined	10.936	17.081	69.334	30.300	0.033003	10.936	17.081	69.334	21.696	29.812	2337.9	-0.55056	15.236	0.34221	30.300	0.033003	10.936	17.081	69.334	21.696	29.812	2337.9	-0.55056	15.236	0.34221
562.32	92.641	undefined	10.971	17.135	69.398	30.300	0.033003	10.971	17.135	69.398	21.697	29.811	2341.0	-0.55070	15.266	0.34287	30.300	0.033003	10.971	17.135	69.398	21.697	29.811	2341.0	-0.55070	15.266	0.34287
563.96	92.907	undefined	11.007	17.188	69.461	30.300	0.033003	11.007	17.188	69.461	21.698	29.809	2344.1	-0.55084	15.296	0.34354	30.300	0.033003	11.007	17.188	69.461	21.698	29.809	2344.1	-0.55084	15.296	0.34354
565.60	93.173	undefined	11.042	17.241	69.524	30.300	0.033003	11.042	17.241	69.524	21.699	29.808	2347.3	-0.55098	15.326	0.34420	30.300	0.033003	11.042	17.241	69.524	21.699	29.808	2347.3	-0.55098	15.326	0.34420
567.24	93.438	undefined	11.078	17.295	69.587	30.300	0.033003	11.078	17.295	69.587	21.700	29.807	2350.4	-0.55112	15.356	0.34486	30.300	0.033003	11.078	17.295	69.587	21.700	29.807	2350.4	-0.55112	15.356	0.34486
568.88	93.704	undefined	11.114	17.348	69.650	30.300	0.033003	11.114	17.348	69.650	21.701	29.805	2353.5	-0.55125	15.386	0.34553	30.300	0.033003	11.114	17.348	69.650	21.701	29.805	2353.5	-0.55125	15.386	0.34553
570.52	93.969	undefined	11.149	17.401	69.712	30.300	0.033003	11.149	17.401	69.712	21.703	29.804	2356.6	-0.55138	15.416	0.34619	30.300	0.033003	11.149	17.401	69.712	21.703	29.804	2356.6	-0.55138	15.416	0.34619
572.17	94.235	undefined	11.185	17.454	69.774	30.300	0.033003	11.185	17.454	69.774	21.704	29.803	2359.7	-0.55151	15.446	0.34685	30.300	0.033003	11.185	17.454	69.774	21.704	29.803	2359.7	-0.55151	15.446	0.34685
573.81	94.500	undefined	11.221	17.508	69.837	30.300	0.033003	11.221	17.508	69.837	21.705	29.802	2362.8	-0.55164	15.476	0.34752	30.300	0.033003	11.221	17.508	69.837	21.705	29.802	2362.8	-0.55164	15.476	0.34752
575.45	94.766	undefined	11.256	17.561	69.899	30.300	0.033003	11.256	17.561	69.899	21.706	29.801	2365.8	-0.55177	15.506	0.34818	30.300	0.033003	11.256	17.561	69.899	21.706	29.801	2365.8	-0.55177	15.506	0.34818
577.09	95.031	undefined	11.292	17.614	69.960	30.300	0.033003	11.292	17.614	69.960	21.707	29.799	2368.9	-0.55189	15.535	0.34884	30.300	0.033003	11.292	17.614	69.960	21.707	29.799	2368.9	-0.55189	15.535	0.34884
578.73	95.296	undefined	11.327	17.668	70.022	30.300	0.033003	11.327	17.668	70.022	21.708	29.798	2372.0	-0.55201	15.565	0.34950	30.300	0.033003	11.327	17.668	70.022	21.708	29.798	2372.0	-0.55201	15.565	0.34950
580.37	95.561	undefined	11.363	17.721	70.084	30.300	0.033003	11.363	17.721	70.084	21.709	29.797	2375.1	-0.55213	15.595	0.35017	30.300	0.033003	11.363	17.721	70.084	21.709	29.797	2375.1	-0.55213	15.595	0.35017
582.02	95.826	undefined	11.399	17.774	70.145	30.300	0.033003	11.399	17.774	70.145	21.710	29.796	2378.1	-0.55225	15.625	0.35083	30.300	0.033003	11.399	17.774	70.145	21.710	29.796	2378.1	-0.55225	15.625	0.35083
583.66	96.092	undefined	11.434	17.827	70.206	30.300	0.033003	11.434	17.827	70.206	21.712	29.795	2381.2	-0.55237	15.655	0.35149	30.300	0.033003	11.434	17.827	70.206	21.712	29.795	2381.2	-0.55237	15.655	0.35149
585.30	96.356	undefined	11.470	17.881	70.267	30.300	0.033003	11.470	17.881	70.267	21.713	29.794	2384.2	-0.55248	15.684	0.35215	30.300	0.033003	11.470	17.881	70.267	21.713	29.794	2384.2	-0.55248	15.684	0.35215
586.94	96.621	undefined	11.506	17.934	70.328	30.300	0.033003	11.506	17.934	70.328	21.714	29.793	2387.3	-0.55259	15.714	0.35281	30.300	0.033003	11.506	17.934	70.328	21.714	29.793	2387.3	-0.55259	15.714	0.35281
588.58	96.886	undefined	11.541	17.987	70.389	30.300	0.033003	11.541	17.987	70.389	21.715	29.792	2390.3	-0.55270	15.744	0.35347	30.300	0.033003	11.541	17.987	70.389	21.715	29.792	2390.3	-0.55270	15.744	0.35347
590.22	97.151	undefined	11.577	18.041	70.449	30.300	0.033003	11.577	18.041	70.449	21.717	29.791	2393.4	-0.55281	15.774	0.35414	30.300	0.033003	11.577	18.041	70.449	21.717	29.791	2393.4	-0.55281	15.774	0.35414
591.87	97.416	undefined	11.613	18.094	70.509	30.300	0.033003	11.613	18.094	70.509	21.718	29.790	2396.4	-0.55291	15.804	0.35480	30.300	0.033003	11.613	18.094	70.509	21.718	29.790	2396.4	-0.55291	15.804	0.35480
593.51	97.681	undefined	11.648	18.147	70.569	30.300	0.033003	11.648	18.147	70.569	21.719	29.790	2399.4	-0.55302	15.833	0.35546	30.300	0.033003	11.648	18.147	70.569	21.719	29.790	2399.4	-0.55302	15.833	0.35546
595.15	97.945	undefined	11.684	18.200	70.629	30.300	0.033003	11.684	18.200	70.629	21.720	29.789	2402.4	-0.55312	15.863	0.35612	30.300	0.033003	11.684	18.200	70.629	21.720	29.789	2402.4	-0.55312	15.863	0.35612
596.79	98.210	undefined	11.720	18.254	70.689	30.300	0.033003	11.720	18.254	70.689	21.722	29.788	2405.4	-0.55322	15.893	0.35678	30.300	0.033003	11.720	18.254	70.689	21.722	29.788	2405.4	-0.55322	15.893	0.35678
598.43	98.474	undefined	11.755	18.307	70.749	30.300	0.033003	11.755	18.307	70.749	21.723	29.787	2408.5	-0.55332	15.922	0.35744	30.300	0.033003	11.755	18.307	70.749	21.723	29.787	2408.5	-0.55332	15.922	0.35744
600.07	98.739	undefined	11.791	18.360	70.809	30.300	0.033003	11.791	18.360	70.809	21.724	29.786	2411.5	-0.55341	15.952	0.35810	30.300	0.033003	11.791	18.360	70.809	21.724	29.786	2411.5	-0.55341	15.952	0.35810
601.72	99.003	undefined	11.827	18.413	70.868	30.300	0.033003	11.827	18.413	70.868	21.726	29.786	2414.5	-0.55351	15.982	0.35876	30.300	0.033003	11.827	18.413	70.868	21.726	29.786	2414.5	-0.55351	15.982	0.35876
603.36	99.268	undefined	11.862	18.467	70.927	30.300	0.033003	11.862	18.467	70.927	21.727	29.785	2417.4	-0.55360	16.011	0.35942	30.300	0.033003	11.862	18.467	70.927	21.727	29.785	2417.4	-0.55360	16.011	0.35942
605.00	99.532	undefined	11.898	18.520	70.986	30.300	0.033003	11.898	18.520	70.986	21.729	29.784	2420.4	-0.55369	16.041	0.36008	30.300	0.033003	11.898	18.520	70.986	21.729	29.784	2420.4	-0.55369	16.041	0.36008
606.64	99.796	undefined	11.934	18.573	71.045	30.300	0.033003	11.934	18.573	71.045	21.730	29.784	2423.4	-0.55378	16.071	0.36074	30.300	0.033003	11.934	18.573	71.045	21.730	29.784	2423.4	-0.55378	16.071	0.36074
608.28	100.06	undefined	11.969	18.626	71.104	30.300	0.033003	11.969	18.626	71.104	21.731	29.783	2426.4	-0.55387	16.100	0.36139	30.300	0.033003	11.969	18.626	71.104	21.731	29.783	2426.4	-0.55387	16.100	0.36139
609.92	100.32	undefined	12.005	18.680	71.162	30.300	0.033003	12.005	18.680	71.162	21.733	29.783	2429.4	-0.55395	16.130	0.36205	30.300	0.033003	12.005	18.680	71.162	21.733	29.783	2429.4	-0.55395	16.130	0.36205
611.57	100.59	undefined	12.041	18.733	71.221	30.300	0.033003	12.041	18.733	71.221	21.734	29.782	2432.3	-0.55404	16.160	0.36271	30.300	0.033003	12.041	18.733	71.221	21.734	29.782	2432.3	-0.55404	16.160	0.36271
613.21	100.85	undefined	12.076	18.786	71.279	30.300	0.033003	12.076	18.786	71.279	21.736	29.782	2435.3	-0.55412	16.189	0.36337	30.300	0.033003	12.076	18.786	71.279	21.736	29.782	2435.3	-0.55412	16.189	0.36337
614.85	101.12	undefined	12.112	18.839	71.337	30.300	0.033003	12.112	18.839	71.337	21.737	29.781	2438.3	-0.55420	16.219	0.36403	30.300	0.033003	12.112	18.839	71.337	21.737	29.781	2438.3	-0.55420	16.219	0.36403
616.49	101.38	undefined	12.148	18.893	71.395	30.300	0.033003	12.148	18.893	71.395	21.739	29.781	2441.2	-0.55428	16.249	0.36469	30.300	0.033003	12.148	18.893	71.395	21.739	29.781	2441.2	-0.55428	16.249	0.36469
618.13	101.64	undefined	12.183	18.946	71.453	30.300	0.033003	12.183	18.946	71.453	21.740	29.780	2444.2	-0.55436	16.278	0.36535	30.300	0.033003	12.183	18.946	71.453	21.740	29.780	2444.2	-0.55436	16.278	0.36535
619.77	101.91	undefined	12.219	18.999	71.511	30.300	0.033003	12.219	18.999	71.511	21.742	29.780	2447.1	-0.55443	16.308	0.36601	30.300	0.033003	12.219	18.999	71.511	21.742	29.780	2447.1	-0.55443	16.308	0.36601
621.42	102.17	undefined	12.255	19.052	71.568	30.300	0.033003	12.255	19.052	71.568	21.743	29.779	2450.0	-0.55450	16.337	0.36666	30.300	0.033003	12.255	19.052	71.568	21.743	29.779	2450.0	-0.55450	16.337	0.36666
623.06	102.44	undefined	12.290	19.106	71.625	30.300	0.033003	12.290	19.106	71.625	21.745	29.779	2453.0	-0.55458	16.367	0.36732	30.300	0.033003	12.290	19.106	71.625	21.745	29.779	2453.0	-0.55458	16.367	0.36732
624.70	102.70	undefined	12.326	19.159	71.683	30.300	0.033003	12.326	19.159	71.683	21.747	29.779	2455.9	-0.55465	16.397	0.36798	30.300	0.033003	12.326	19.159	71.683	21.747	29.779	2455.9	-0.55465	16.397	0.36798
626.34	102.96	undefined	12.362	19.212	71.740	30.300	0.033003	12.362	19.212	71.740	21.748	29.778	2458.8	-0.55471	16.426	0.36864	30.300	0.033003	12.362	19.212	71.740	21.748	29.778	2458.8	-0.55471	16.426	0.36864
627.98	103.23	undefined	12.398	19.265	71.797	30.300	0.033003	12.398	19.265	71.797	21.750	29.778	2461.7	-0.55478	16.456	0.36929	30.300	0.033003	12.398	19.265	71.797	21.750	29.778	2461.7	-0.55478	16.456	0.36929
629.62	103.49	undefined	12.433	19.319	71.853	30.300	0.033003	12.433	19.319	71.853	21.751	29.778	2464.7	-0.55485	16.485	0.36995	30.300	0.033003	12.433	19.319	71.853	21.751	29.778	2464.7	-0.55485	16.485	0.36995
631.27	103.75	undefined	12.469	19.372	71.910	30.300	0.033003	12.469	19.372	71.910	21.753	29.778	2467.6	-0.55491	16.515	0.37061	30.300	0.033003	12.469	19.372	71.910	21.753	29.778	2467.6	-0.55491	16.515	0.37061
632.91	104.02	undefined	12.505	19.425	71.967	30.300	0.033003	12.505	19.425	71.967	21.755	29.778	2470.5	-0.55497	16.544	0.37127	30.300	0.033003	12.505	19.425	71.967	21.755	29.778	2470.5	-0.55497	16.544	0.37127
634.55	104.28	undefined	12.540	19.478	72.023	30.300	0.033003	12.540	19.478	72.023	21.756	29.777	2473.4	-0.55503	16.574	0.37193	30.300	0.033003	12.540	19.478	72.023	21.756	29.777	2473.4	-0.55503	16.574	0.37193
636.19	104.54	undefined	12.576	19.532	72.079	30.300	0.033003	12.576	19.532	72.079	21.758	29.777	2476.3	-0.55509	16.603	0.37258	30.300	0.033003	12.576	19.532	72.079	21.758	29.777	2476.3	-0.55509	16.603	0.37258
637.83	104.81	undefined	12.612	19.585	72.135	30.300	0.033003	12.612	19.585	72.135	21.760	29.777	2479.1	-0.55515	16.633	0.37324	30.300	0.033003	12.612	19.585	72.135	21.760	29.777	2479.1	-0.55515	16.633	0.37324
639.47	105.07	undefined	12.648	19.638	72.191	30.300	0.033003	12.648	19.638	72.191	21.762	29.777	2482.0	-0.55520	16.662	0.37390	30.300	0.033003	12.648	19.638	72.191	21.762	29.777	2482.0	-0.55520	16.662	0.37390
641.12	105.33	undefined	12.683	19.691	72.247	30.300	0.033003	12.683	19.691	72.247	21.763	29.777	2484.9	-0.55526	16.692	0.37455	30.300	0.033003	12.683	19.691	72.247	21.763	29.777	2484.9	-0.55526	16.692	0.37455
642.76	105.60	undefined	12.719	19.744	72.303	30.300	0.033003	12.719	19.744	72.303	21.765	29.777	2487.8	-0.55531	16.721	0.37521	30.300	0.033003	12.719	19.744	72.303	21.765	29.777	2487.8	-0.55531	16.721	0.37521
644.40	105.86	undefined	12.755	19.798	72.358	30.300	0.033003	12.755	19.798	72.358	21.767	29.777	2490.7	-0.55536	16.751	0.37587	30.300	0.033003	12.755	19.798	72.358	21.767	29.777	2490.7	-0.55536	16.751	0.37587
646.04	106.12	undefined	12.791	19.851	72.414	30.300	0.033003	12.791	19.851	72.414	21.769	29.777	2493.5	-0.55541	16.780	0.37652	30.300	0.033003	12.791	19.851	72.414	21.769	29.777	2493.5	-0.55541	16.780	0.37652
647.68	106.39	undefined	12.826	19.904	72.469	30.300	0.033003	12.826	19.904	72.469	21.771	29.777	2496.4	-0.55546	16.810	0.37718	30.300	0.033003	12.826	19.904	72.469	21.771	29.777	2496.4	-0.55546	16.810	0.37718
649.32	106.65	undefined	12.862	19.957	72.524	30.300	0.033003	12.862	19.957	72.524	21.772	29.777	2499.2	-0.55551	16.839	0.37784	30.300	0.033003	12.862	19.957	72.524	21.772	29.777	2499.2	-0.55551	16.839	0.37784
650.97	106.91	undefined	12.898	20.011	72.579	30.300	0.033003	12.898	20.011	72.579	21.774	29.777	2502.1	-0.55555	16.869	0.37850	30.300	0.033003	12.898	20.011	72.579	21.774	29.777	2502.1	-0.55555	16.869	0.37850
652.61	107.17	undefined	12.933	20.064	72.634	30.300	0.033003	12.933	20.064	72.634	21.776	29.778	2504.9	-0.55560	16.898	0.37915	30.300	0.033003	12.933	20.064	72.634	21.776	29.778	2504.9	-0.55560	16.898	0.37915
654.25	107.44	undefined	12.969	20.117	72.688	30.300	0.033003	12.969	20.117	72.688	21.778	29.778	2507.8	-0.55564	16.927	0.37981	30.300	0.033003	12.969	20.117	72.688	21.778	29.778	2507.8	-0.55564	16.927	0.37981
655.89	107.70	undefined	13.005	20.170	72.743	30.300	0.033003	13.005	20.170	72.743	21.780	29.778	2510.6	-0.55568	16.957	0.38047	30.300	0.033003	13.005	20.170	72.743	21.780	29.778	2510.6	-0.55568	16.957	0.38047
657.53	107.96	undefined	13.041	20.224	72.797	30.300	0.033003	13.041	20.224	72.797	21.782	29.778	2513.4	-0.55572	16.986	0.38112	30.300	0.033003	13.041	20.224	72.797	21.782	29.778	2513.4	-0.55572	16.986	0.38112
659.17	108.22	undefined	13.077	20.277	72.852	30.300	0.033003	13.077	20.277	72.852	21.784	29.778	2516.3	-0.55576	17.016	0.38178	30.300	0.033003	13.077	20.277	72.852	21.784	29.778	2516.3	-0.55576	17.016	0.38178
660.82	108.49	undefined	13.112	20.330	72.906	30.300	0.033003	13.112	20.330	72.906	21.786	29.779	2519.1	-0.55579	17.045	0.38243	30.300	0.033003	13.112	20.330	72.906	21.786	29.779	2519.1	-0.55579	17.045	0.38243
662.46	108.75	undefined	13.148	20.383	72.960	30.300	0.033003	13.148	20.383	72.960	21.788	29.779	2521.9	-0.55583	17.074	0.38309	30.300	0.033003	13.148	20.383	72.960	21.788	29.779	2521.9	-0.55583	17.074	0.38309
664.10	109.01	undefined	13.184	20.436	73.014	30.300	0.033003	13.184	20.436	73.014	21.790	29.779	2524.7	-0.55586	17.104	0.38375	30.300	0.033003	13.184	20.436	73.014	21.790	29.779	2524.7	-0.55586	17.104	0.38375
665.74	109.27	undefined	13.220	20.490	73.068	30.300	0.033003	13.220	20.490	73.068	21.792	29.780	2527.5	-0.55589	17.133	0.38440	30.300	0.033003	13.220	20.490	73.068	21.792	29.780	2527.5	-0.55589	17.133	0.38440
667.38	109.54	undefined	13.255	20.543	73.121	30.300	0.033003	13.255	20.543	73.121	21.794	29.780	2530.4	-0.55593	17.163	0.38506	30.300	0.033003	13.255	20.543	73.121	21.794	29.780	2530.4	-0.55593	17.163	0.38506
669.02	109.80	undefined	13.291	20.596	73.175	30.300	0.033003	13.291	20.596	73.175	21.796	29.780	2533.2	-0.55596	17.192	0.38572	30.300	0.033003	13.291	20.596	73.175	21.796	29.780	2533.2	-0.55596	17.192	0.38572
670.67	110.06	undefined	13.327	20.649	73.228	30.300	0.033003	13.327	20.649	73.228	21.798	29.781	2536.0	-0.55598	17.221	0.38637	30.300	0.033003	13.327	20.649	73.228	21.798	29.781	2536.0	-0.55598	17.221	0.38637
672.31	110.32	undefined	13.363	20.703	73.282	30.300	0.033003	13.363	20.703	73.282	21.800	29.781	2538.7	-0.55601	17.251	0.38703	30.300	0.033003	13.363	20.703	73.282	21.800	29.781	2538.7	-0.55601	17.251	0.38703
673.95	110.59	undefined	13.399	20.756	73.335	30.300	0.033003	13.399	20.756	73.335	21.802	29.782	2541.5	-0.55604	17.280	0.38769	30.300	0.033003	13.399	20.756	73.335	21.802	29.782	2541.5	-0.55604	17.280	0.38769
675.59	110.85	undefined	13.434	20.809	73.388	30.300	0.033003	13.434	20.809	73.388	21.804	29.782	2544.3	-0.55606	17.309	0.38834	30.300	0.033003	13.434	20.809	73.388	21.804	29.782	2544.3	-0.55606	17.309	0.38834
677.23	111.11	undefined	13.470	20.862	73.441	30.300	0.033003	13.470	20.862	73.441	21.807	29.783	2547.1	-0.55608	17.339	0.38900	30.300	0.033003	13.470	20.862	73.441	21.807	29.783	2547.1	-0.55608	17.339	0.38900
678.87	111.37	undefined	13.506	20.916	73.494	30.300	0.033003	13.506	20.916	73.494	21.809	29.783	2549.9	-0.55610	17.368	0.38965	30.300	0.033003	13.506	20.916	73.494	21.809	29.783	2549.9	-0.55610	17.368	0.38965
680.52	111.63	undefined	13.542	20.969	73.546	30.300	0.033003	13.542	20.969	73.546	21.811	29.784	2552.6	-0.55612	17.397	0.39031	30.300	0.033003	13.542	20.969	73.546	21.811	29.784	2552.6	-0.55612	17.397	0.39031
682.16	111.90	undefined	13.578	21.022	73.599	30.300	0.033003	13.578	21.022	73.599	21.813	29.784	2555.4	-0.55614	17.427	0.39097	30.300	0.033003	13.578	21.022	73.599	21.813	29.784	2555.4	-0.55614	17.427	0.39097
683.80	112.16	undefined	13.613	21.075	73.651	30.300	0.033003	13.613	21.075	73.651	21.815	29.785	2558.2	-0.55616	17.456	0.39162	30.300	0.033003	13.613	21.075	73.651	21.815	29.785	2558.2	-0.55616	17.456	0.39162
685.44	112.42	undefined	13.649	21.129	73.704	30.300	0.033003	13.649	21.129	73.704	21.817	29.786	2560.9	-0.55618	17.485	0.39228	30.300	0.033003	13.649	21.129	73.704	21.817	29.786	2560.9	-0.55618	17.485	0.39228
687.08	112.68	undefined	13.685	21.182	73.756	30.300	0.033003	13.685	21.182	73.756	21.820	29.786	2563.7	-0.55619	17.515	0.39294	30.300	0.033003	13.685	21.182	73.756	21.820	29.786	2563.7	-0.55619	17.515	0.39294
688.72	112.94	undefined	13.721	21.235	73.808	30.300	0.033003	13.721	21.235	73.808	21.822	29.787	2566.4	-0.55621	17.544	0.39359	30.300	0.033003	13.721	21.235	73.808	21.822	29.787	2566.4	-0.55621	17.544	0.39359
690.37	113.21	undefined	13.757	21.288	73.860	30.300	0.033003	13.757	21.288	73.860	21.824	29.788	2569.2	-0.55622	17.573	0.39425	30.300	0.033003	13.757	21.288	73.860	21.824	29.788	2569.2	-0.55622	17.573	0.39425
692.01	113.47	undefined	13.792	21.341	73.912	30.300	0.033003	13.792	21.341	73.912	21.827	29.789	2571.9	-0.55623	17.602	0.39491	30.300	0.033003	13.792	21.341	73.912	21.827	29.789	2571.9	-0.55623	17.602	0.39491
693.65	113.73	undefined	13.828	21.395	73.963	30.300	0.033003	13.828	21.395	73.963	21.829	29.789	2574.7	-0.55624	17.632	0.39556	30.300	0.033003	13.828	21.395	73.963	21.829	29.789	2574.7	-0.55624	17.632	0.39556
695.29	113.99	undefined	13.864	21.448	74.015	30.300	0.033003	13.864	21.448	74.015	21.831	29.790	2577.4	-0.55625	17.661	0.39622	30.300	0.033003	13.864	21.448	74.015	21.831	29.790	2577.4	-0.55625	17.661	0.39622
696.93	114.25	undefined	13.900	21.501	74.066	30.300	0.033003	13.900	21.501	74.066	21.834	29.791	2580.1	-0.55626	17.690	0.39687	30.300	0.033003	13.900	21.501	74.066	21.834	29.791	2580.1	-0.55626	17.690	0.39687
698.57	114.51	undefined	13.936	21.554	74.118	30.300	0.033003	13.936	21.554	74.118	21.836	29.792	2582.9	-0.55626	17.719	0.39753	30.300	0.033003	13.936	21.554	74.118	21.836	29.792	2582.9	-0.55626	17.719	0.39753
700.22	114.77	undefined	13.972	21.608	74.169	30.300	0.033003	13.972	21.608	74.169	21.838	29.793	2585.6	-0.55627	17.749	0.39819	30.300	0.033003	13.972	21.608	74.169	21.838	29.793	2585.6	-0.55627	17.749	0.39819
701.86	115.04	undefined	14.007	21.661	74.220	30.300	0.033003	14.007	21.661	74.220	21.841	29.794	2588.3	-0.55627	17.778	0.39884	30.300	0.033003	14.007	21.661	74.220	21.841	29.794	2588.3	-0.55627	17.778	0.39884
703.50	115.30	undefined	14.043	21.714	74.271	30.300	0.033003	14.043	21.714	74.271	21.843	29.795	2591.0	-0.55628	17.807	0.39950	30.300	0.033003	14.043	21.714	74.271	21.843	29.795	2591.0	-0.55628	17.807	0.39950
705.14	115.56	undefined	14.079	21.767	74.322	30.300	0.033003	14.079	21.767	74.322	21.846	29.796	2593.7	-0.55628	17.836	0.40016	30.300	0.033003	14.079	21.767	74.322	21.846	29.796	2593.7	-0.55628	17.836	0.40016
706.78	115.82	undefined	14.115	21.821	74.373	30.300	0.033003	14.115	21.821	74.373	21.848	29.797	2596.4	-0.55628	17.866	0.40081	30.300	0.033003	14.115	21.821	74.373	21.848	29.797	2596.4	-0.55628	17.866	0.40081
708.42	116.08	undefined	14.151	21.874	74.424	30.300	0.033003	14.151	21.874	74.424	21.850	29.798	2599.1	-0.55628	17.895	0.40147	30.300	0.033003	14.151	21.874	74.424	21.850	29.798	2599.1	-0.55628	17.895	0.40147
710.07	116.34	undefined	14.187	21.927	74.474	30.300	0.033003	14.187	21.927	74.474	21.853	29.799	2601.8	-0.55628	17.924	0.40213	30.300	0.033003	14.187	21.927	74.474	21.853	29.799	2601.8	-0.55628	17.924	0.40213
711.71	116.60	undefined	14.223	21.980	74.525	30.300	0.033003	14.223	21.980	74.525	21.855	29.800	2604.5	-0.55627	17.953	0.40278	30.300	0.033003	14.223	21.980	74.525	21.855	29.800	2604.5	-0.55627	17.953	0.40278
713.35	116.86	undefined	14.259	22.034	74.575	30.300	0.033003	14.259	22.034	74.575	21.858	29.801	2607.2	-0.55627	17.983	0.40344	30.300	0.033003	14.259	22.034	74.575	21.858	29.801	2607.2	-0.55627	17.983	0.40344
714.99	117.13	undefined	14.294	22.087	74.625	30.300	0.033003	14.294	22.087	74.625	21.860	29.802	2609.9	-0.55627	18.012	0.40410	30.300	0.033003	14.294	22.087	74.625	21.860	29.802	2609.9	-0.55627	18.012	0.40410
716.63	117.39	undefined	14.330	22.140	74.675	30.300	0.033003	14.330	22.140	74.675	21.863	29.803	2612.6	-0.55626	18.041	0.40475	30.300	0.033003	14.330	22.140	74.675	21.863	29.803	2612.6	-0.55626	18.041	0.40475
718.27	117.65	undefined	14.366	22.193	74.725	30.300	0.033003	14.366	22.193	74.725	21.866	29.804	2615.2	-0.55625	18.070	0.40541	30.300	0.033003	14.366	22.193	74.725	21.866	29.804	2615.2	-0.55625	18.070	0.40541
719.92	117.91	undefined	14.402	22.247	74.775	30.300	0.033003	14.402	22.247	74.775	21.868	29.805	2617.9	-0.55624	18.099	0.40607	30.300	0.033003	14.402	22.247	74.775	21.868	29.805	2617.9	-0.55624	18.099	0.40607
721.56	118.17	undefined	14.438	22.300	74.825	30.300	0.033003	14.438	22.300	74.825	21.871	29.807	2620.6	-0.55623	18.129	0.40672	30.300	0.033003	14.438	22.300	74.825	21.871	29.807	2620.6	-0.55623	18.129	0.40672
723.20	118.43	undefined	14.474	22.353	74.875	30.300	0.033003	14.474	22.353	74.875	21.873	29.808	2623.2	-0.55622	18.158	0.40738	30.300	0.033003	14.474	22.353	74.875	21.873	29.808	2623.2	-0.55622	18.158	0.40738
724.84	118.69	undefined	14.510	22.406	74.925	30.300	0.033003	14.510	22.406	74.925	21.876	29.809	2625.9	-0.55621	18.187	0.40804	30.300	0.033003	14.510	22.406	74.925	21.876	29.809	2625.9	-0.55621	18.187	0.40804
726.48	118.95	undefined	14.546	22.460	74.974	30.300	0.033003	14.546	22.460	74.974	21.879	29.810	2628.6	-0.55620	18.216	0.40870	30.300	0.033003	14.546	22.460	74.974	21.879	29.810	2628.6	-0.55620	18.216	0.40870
728.12	119.21	undefined	14.582	22.513	75.023	30.300	0.033003	14.582	22.513	75.023	21.881	29.812	2631.2	-0.55618	18.245	0.40935	30.300	0.033003	14.582	22.513	75.023	21.881	29.812	2631.2	-0.55618	18.245	0.40935
729.77	119.47	undefined	14.618	22.566	75.073	30.300	0.033003	14.618	22.566	75.073	21.884	29.813	2633.9	-0.55617	18.274	0.41001	30.300	0.033003	14.618	22.566	75.073	21.884	29.813	2633.9	-0.55617	18.274	0.41001
731.41	119.73	undefined	14.654	22.619	75.122	30.300	0.033003	14.654	22.619	75.122	21.887	29.814	2636.5	-0.55615	18.304	0.41067	30.300	0.033003	14.654	22.619	75.122	21.887	29.814	2636.5	-0.55615	18.304	0.41067
733.05	119.99	undefined	14.689	22.673	75.171	30.300	0.033003	14.689	22.673	75.171	21.889	29.816	2639.1	-0.55614	18.333	0.41133	30.300	0.033003	14.689	22.673	75.171	21.889	29.816	2639.1	-0.55614	18.333	0.41133
734.69	120.25	undefined	14.725	22.726	75.220	30.300	0.033003	14.725	22.726	75.220	21.892	29.817	2641.8	-0.55612	18.362	0.41198	30.300	0.033003	14.725	22.726	75.220	21.892	29.817	2641.8	-0.55612	18.362	0.41198
736.33	120.51	undefined	14.761	22.779	75.269	30.300	0.033003	14.761	22.779	75.269	21.895	29.818	2644.4	-0.55610	18.391	0.41264	30.300	0.033003	14.761	22.779	75.269	21.895	29.818	2644.4	-0.55610	18.391	0.41264
737.97	120.77	undefined	14.797	22.833	75.318	30.300	0.033003	14.797	22.833	75.318	21.898	29.820	2647.0	-0.55608	18.420	0.41330	30.300	0.033003	14.797	22.833	75.318	21.898	29.820	2647.0	-0.55608	18.420	0.41330
739.62	121.04	undefined	14.833	22.886	75.366	30.300	0.033003	14.833	22.886	75.366	21.901	29.821	2649.7	-0.55606	18.449	0.41396	30.300	0.033003	14.833	22.886	75.366	21.901	29.821	2649.7	-0.55606	18.449	0.41396
741.26	121.30	undefined	14.869	22.939	75.415	30.300	0.033003	14.869	22.939	75.415	21.903	29.823	2652.3	-0.55603	18.478	0.41461	30.300	0.033003	14.869	22.939	75.415	21.903	29.823	2652.3	-0.55603	18.478	0.41461
742.90	121.56	undefined	14.905	22.992	75.463	30.300	0.033003	14.905	22.992	75.463	21.906	29.824	2654.9	-0.55601	18.508	0.41527	30.300	0.033003	14.905	22.992	75.463	21.906	29.824	2654.9	-0.55601	18.508	0.41527
744.54	121.82	undefined	14.941	23.046	75.512	30.300	0.033003	14.941	23.046	75.512	21.909	29.826	2657.5	-0.55599	18.537	0.41593	30.300	0.033003	14.941	23.046	75.512	21.909	29.826	2657.5	-0.55599	18.537	0.41593
746.18	122.08	undefined	14.977	23.099	75.560	30.300	0.033003	14.977	23.099	75.560	21.912	29.827	2660.1	-0.55596	18.566	0.41659	30.300	0.033003	14.977	23.099	75.560	21.912	29.827	2660.1	-0.55596	18.566	0.41659
747.82	122.34	undefined	15.013	23.152	75.608	30.300	0.033003	15.013	23.152	75.608	21.915	29.829	2662.7	-0.55593	18.595	0.41725	30.300	0.033003	15.013	23.152	75.608	21.915	29.829	2662.7	-0.55593	18.595	0.41725
749.47	122.60	undefined	15.049	23.205	75.656	30.300	0.033003	15.049	23.205	75.656	21.918	29.831	2665.3	-0.55591	18.624	0.41790	30.300	0.033003	15.049	23.205	75.656	21.918	29.831	2665.3	-0.55591	18.624	0.41790
751.11	122.86	undefined	15.085	23.259	75.704	30.300	0.033003	15.085	23.259	75.704	21.921	29.832	2667.9	-0.55588	18.653	0.41856	30.300	0.033003	15.085	23.259	75.704	21.921	29.832	2667.9	-0.55588	18.653	0.41856
752.75	123.12	undefined	15.121	23.312	75.752	30.300	0.033003	15.121	23.312	75.752	21.924	29.834	2670.5	-0.55585	18.682	0.41922	30.300	0.033003	15.121	23.312	75.752	21.924	29.834	2670.5	-0.55585	18.682	0.41922
754.39	123.38	undefined	15.157	23.365	75.800	30.300	0.033003	15.157	23.365	75.800	21.926	29.836	2673.1	-0.55582	18.711	0.41988	30.300	0.033003	15.157	23.365	75.800	21.926	29.836	2673.1	-0.55582	18.711	0.41988
756.03	123.64	undefined	15.193	23.419	75.847	30.300	0.033003	15.193	23.419	75.847	21.929	29.837	2675.7	-0.55579	18.741	0.42054	30.300	0.033003	15.193	23.419	75.847	21.929	29.837	2675.7	-0.55579	18.741	0.42054
757.67	123.90	undefined	15.229	23.472	75.895	30.300	0.033003	15.229	23.472	75.895	21.932	29.839	2678.3	-0.55575	18.770	0.42120	30.300	0.033003	15.229	23.472	75.895	21.932	29.839	2678.3	-0.55575	18.770	0.42120
759.32	124.16	undefined	15.265	23.525	75.942	30.300	0.033003	15.265	23.525	75.942	21.935	29.841	2680.9	-0.55572	18.799	0.42185	30.300	0.033003	15.265	23.525	75.942	21.935	29.841	2680.9	-0.55572	18.799	0.42185
760.96	124.42	undefined	15.301	23.579	75.990	30.300	0.033003	15.301	23.579	75.990	21.938	29.842	2683.5	-0.55569	18.828	0.42251	30.300	0.033003	15.301	23.579	75.990	21.938	29.842	2683.5	-0.55569	18.828	0.42251
762.60	124.68	undefined	15.337	23.632	76.037	30.300	0.033003	15.337	23.632	76.037	21.941	29.844	2686.0	-0.55565	18.857	0.42317	30.300	0.033003	15.337	23.632	76.037	21.941	29.844	2686.0	-0.55565	18.857	0.42317
764.24	124.94	undefined	15.373	23.685	76.084	30.300	0.033003	15.373	23.685	76.084	21.945	29.846	2688.6	-0.55561	18.886	0.42383	30.300	0.033003	15.373	23.685	76.084	21.945	29.846	2688.6	-0.55561	18.886	0.42383
765.88	125.20	undefined	15.409	23.738	76.131	30.300	0.033003	15.409	23.738	76.131	21.948	29.848	2691.2	-0.55558	18.915	0.42449	30.300	0.033003	15.409	23.738	76.131	21.948	29.848	2691.2	-0.55558	18.915	0.42449
767.52	125.45	undefined	15.445	23.792	76.178	30.300	0.033003	15.445	23.792	76.178	21.951	29.850	2693.7	-0.55554	18.944	0.42515	30.300	0.033003	15.445	23.792	76.178	21.951	29.850	2693.7	-0.55554	18.944	0.42515
769.17	125.71	undefined	15.481	23.845	76.225	30.300	0.033003	15.481	23.845	76.225	21.954	29.852	2696.3	-0.55550	18.973	0.42581	30.300	0.033003	15.481	23.845	76.225	21.954	29.852	2696.3	-0.55550	18.973	0.42581
770.81	125.97	undefined	15.517	23.898	76.272	30.300	0.033003	15.517	23.898	76.272	21.957	29.854	2698.8	-0.55546	19.002	0.42647	30.300	0.033003	15.517	23.898	76.272	21.957	29.854	2698.8	-0.55546	19.002	0.42647
772.45	126.23	undefined	15.553	23.952	76.319	30.300	0.033003	15.553	23.952	76.319	21.960	29.856	2701.4	-0.55542	19.031	0.42713	30.300	0.033003	15.553	23.952	76.319	21.960	29.856	2701.4	-0.55542	19.031	0.42713
774.09	126.49	undefined	15.589	24.005	76.365	30.300	0.033003	15.589	24.005	76.365	21.963	29.857	2703.9	-0.55538	19.061	0.42779	30.300	0.033003	15.589	24.005	76.365	21.963	29.857	2703.9	-0.55538	19.061	0.42779
775.73	126.75	undefined	15.625	24.058	76.412	30.300	0.033003	15.625	24.058	76.412	21.966	29.859	2706.5	-0.55534	19.090	0.42845	30.300	0.033003	15.625	24.058	76.412	21.966	29.859	2706.5	-0.55534	19.090	0.42845
777.37	127.01	undefined	15.661	24.112	76.458	30.300	0.033003	15.661	24.112	76.458	21.970	29.861	2709.0	-0.55529	19.119	0.42911	30.300	0.033003	15.661	24.112	76.458	21.970	29.861	2709.0	-0.55529	19.119	0.42911
779.02	127.27	undefined	15.698	24.165	76.505	30.300	0.033003	15.698	24.165	76.505	21.973	29.863	2711.6	-0.55525	19.148	0.42977	30.300	0.033003	15.698	24.165	76.505	21.973	29.863	2711.6	-0.55525	19.148	0.42977
780.66	127.53	undefined	15.734	24.218	76.551	30.300	0.033003	15.734	24.218	76.551	21.976	29.865	2714.1	-0.55520	19.177	0.43043	30.300	0.033003	15.734	24.218	76.551	21.976	29.865	2714.1	-0.55520	19.177	0.43043
782.30	127.79	undefined	15.770	24.272	76.597	30.300	0.033003	15.770	24.272	76.597	21.979	29.868	2716.6	-0.55516	19.206	0.43109	30.300	0.033003	15.770	24.272	76.597	21.979	29.868	2716.6	-0.55516	19.206	0.43109
783.94	128.05	undefined	15.806	24.325	76.643	30.300	0.033003	15.806	24.325	76.643	21.983	29.870	2719.1	-0.55511	19.235	0.43175	30.300	0.033003	15.806	24.325	76.643	21.983	29.870	2719.1	-0.55511	19.235	0.43175
785.58	128.31	undefined	15.842	24.378	76.689	30.300	0.033003	15.842	24.378	76.689	21.986	29.872	2721.7	-0.55506	19.264	0.43241	30.300	0.033003	15.842	24.378	76.689	21.986	29.872	2721.7	-0.55506	19.264	0.43241
787.22	128.57	undefined	15.878	24.432	76.735	30.300	0.033003	15.878	24.432	76.735	21.989	29.874	2724.2	-0.55501	19.293	0.43307	30.300	0.033003	15.878	24.432	76.735	21.989	29.874	2724.2	-0.55501	19.293	0.43307
788.87	128.83	undefined	15.914	24.485	76.781	30.300	0.033003	15.914	24.485	76.781	21.992	29.876	2726.7	-0.55496	19.322	0.43373	30.300	0.033003	15.914	24.485	76.781	21.992	29.876	2726.7	-0.55496	19.322	0.43373
790.51	129.09	undefined	15.950	24.538	76.827	30.300	0.033003	15.950	24.538	76.827	21.996	29.878	2729.2	-0.55491	19.351	0.43439	30.300	0.033003	15.950	24.538	76.827	21.996	29.878	2729.2	-0.55491	19.351	0.43439
792.15	129.34	undefined	15.986	24.592	76.872	30.300	0.033003	15.986	24.592	76.872	21.999	29.880	2731.7	-0.55486	19.380	0.43505	30.300	0.033003	15.986	24.592	76.872	21.999	29.880	2731.7	-0.55486	19.380	0.43505
793.79	129.60	undefined	16.022	24.645	76.918	30.300	0.033003	16.022	24.645	76.918	22.002	29.883	2734.2	-0.55481	19.409	0.43571	30.300	0.033003	16.022	24.645	76.918	22.002	29.883	2734.2	-0.55481	19.409	0.43571
795.43	129.86	undefined	16.059	24.698	76.963	30.300	0.033003	16.059	24.698	76.963	22.006	29.885	2736.7	-0.55475	19.438	0.43637	30.300	0.033003	16.059	24.698	76.963	22.006	29.885	2736.7	-0.55475	19.438	0.43637
797.07	130.12	undefined	16.095	24.752	77.009	30.300	0.033003	16.095	24.752	77.009	22.009	29.887	2739.2	-0.55470	19.467	0.43704	30.300	0.033003	16.095	24.752	77.009	22.009	29.887	2739.2	-0.55470	19.467	0.43704
798.72	130.38	undefined	16.131	24.805	77.054	30.300	0.033003	16.131	24.805	77.054	22.013	29.889	2741.7	-0.55465	19.496	0.43770	30.300	0.033003	16.131	24.805	77.054	22.013	29.889	2741.7	-0.55465	19.496	0.43770
800.36	130.64	undefined	16.167	24.858	77.099	30.300	0.033003	16.167	24.858	77.099	22.016	29.892	2744.2	-0.55459	19.525	0.43836	30.300	0.033003	16.167	24.858	77.099	22.016	29.892	2744.2	-0.55459	19.525	0.43836
802.00	130.90	undefined	16.203	24.912	77.144	30.300	0.033003	16.203	24.912	77.144	22.020	29.894	2746.7	-0.55453	19.554	0.43902	30.300	0.033003	16.203	24.912	77.144	22.020	29.894	2746.7	-0.55453	19.554	0.43902
803.64	131.16	undefined	16.239	24.965	77.189	30.300	0.033003	16.239	24.965	77.189	22.023	29.896	2749.2	-0.55448	19.583	0.43968	30.300	0.033003	16.239	24.965	77.189	22.023	29.896	2749.2	-0.55448	19.583	0.43968
805.28	131.42	undefined	16.275	25.019	77.234	30.300	0.033003	16.275	25.019	77.234	22.026	29.899	2751.7	-0.55442	19.612	0.44034	30.300	0.033003	16.275	25.019	77.234	22.026	29.899	2751.7	-0.55442	19.612	0.44034
806.92	131.67	undefined	16.312	25.072	77.279	30.300	0.033003	16.312	25.072	77.279	22.030	29.901	2754.2	-0.55436	19.642	0.44101	30.300	0.033003	16.312	25.072	77.279	22.030	29.901	2754.2	-0.55436	19.642	0.44101
808.57	131.93	undefined	16.348	25.125	77.324	30.300	0.033003	16.348	25.125	77.324	22.033	29.904	2756.6	-0.55430	19.671	0.44167	30.300	0.033003	16.348	25.125	77.324	22.033	29.904	2756.6	-0.55430	19.671	0.44167
810.21	132.19	undefined	16.384	25.179	77.369	30.300	0.033003	16.384	25.179	77.369	22.037	29.906	2759.1	-0.55424	19.700	0.44233	30.300	0.033003	16.384	25.179	77.369	22.037	29.906	2759.1	-0.55424	19.700	0.44233
811.85	132.45	undefined	16.420	25.232	77.413	30.300	0.033003	16.420	25.232	77.413	22.041	29.909	2761.6	-0.55418	19.729	0.44299	30.300	0.033003	16.420	25.232	77.413	22.041	29.909	2761.6	-0.55418	19.729	0.44299
813.49	132.71	undefined	16.456	25.285	77.458	30.300	0.033003	16.456	25.285	77.458	22.044	29.911	2764.0	-0.55411	19.758	0.44366	30.300	0.033003	16.456	25.285	77.458	22.044	29.911	2764.0	-0.55411	19.758	0.44366
815.13	132.97	undefined	16.492	25.339	77.502	30.300	0.033003	16.492	25.339	77.502	22.048	29.914	2766.5	-0.55405	19.787	0.44432	30.300	0.033003	16.492	25.339	77.502	22.048	29.914	2766.5	-0.55405	19.787	0.44432
816.77	133.23	undefined	16.529	25.392	77.546	30.300	0.033003	16.529	25.392	77.546	22.051	29.916	2769.0	-0.55399	19.816	0.44498	30.300	0.033003	16.529	25.392	77.546	22.051	29.916	2769.0	-0.55399	19.816	0.44498
818.42	133.48	undefined	16.565	25.446	77.591	30.300	0.033003	16.565	25.446	77.591	22.055	29.919	2771.4	-0.55392	19.845	0.44564	30.300	0.033003	16.565	25.446	77.591	22.055	29.919	2771.4	-0.55392	19.845	0.44564
820.06	133.74	undefined	16.601	25.499	77.635	30.300	0.033003	16.601	25.499	77.635	22.059	29.921	2773.9	-0.55386	19.874	0.44631	30.300	0.033003	16.601	25.499	77.635	22.059	29.921	2773.9	-0.55386	19.874	0.44631
821.70	134.00	undefined	16.637	25.552	77.679	30.300	0.033003	16.637	25.552	77.679	22.062	29.924	2776.3	-0.55379	19.903	0.44697	30.300	0.033003	16.637	25.552	77.679	22.062	29.924	2776.3	-0.55379	19.903	0.44697
823.34	134.26	undefined	16.673	25.606	77.723	30.300	0.033003	16.673	25.606	77.723	22.066	29.926	2778.8	-0.55372	19.932	0.44763	30.300	0.033003	16.673	25.606	77.723	22.066	29.926	2778.8	-0.55372	19.932	0.44763
824.98	134.52	undefined	16.710	25.659	77.767	30.300	0.033003	16.710	25.659	77.767	22.070	29.929	2781.2	-0.55366	19.961	0.44830	30.300	0.033003	16.710	25.659	77.767	22.070	29.929	2781.2	-0.55366	19.961	0.44830
826.62	134.78	undefined	16.746	25.713	77.811	30.300	0.033003	16.746	25.713	77.811	22.073	29.932	2783.6	-0.55359	19.990	0.44896	30.300	0.033003	16.746	25.713	77.811	22.073	29.932	2783.6	-0.55359	19.990	0.44896
828.27	135.03	undefined	16.782	25.766	77.855	30.300	0.033003	16.782	25.766	77.855	22.077	29.934	2786.1	-0.55352	20.019	0.44963	30.300	0.033003	16.782	25.766	77.855	22.077	29.934	2786.1	-0.55352	20.019	0.44963
829.91	135.29	undefined	16.818	25.820	77.898	30.300	0.033003	16.818	25.820	77.898	22.081	29.937	2788.5	-0.55345	20.048	0.45029	30.300	0.033003	16.818	25.820	77.898	22.081	29.937	2788.5	-0.55345	20.048	0.45029
831.55	135.55	undefined	16.855	25.873	77.942	30.300	0.033003	16.855	25.873	77.942	22.084	29.940	2790.9	-0.55338	20.077	0.45095	30.300	0.033003	16.855	25.873	77.942	22.084	29.940	2790.9	-0.55338	20.077	0.45095
833.19	135.81	undefined	16.891	25.926	77.986	30.300	0.033003	16.891	25.926	77.986	22.088	29.943	2793.4	-0.55331	20.106	0.45162	30.300	0.033003	16.891	25.926	77.986	22.088	29.943	2793.4	-0.55331	20.106	0.45162
834.83	136.07	undefined	16.927	25.980	78.029	30.300	0.033003	16.927	25.980	78.029	22.092	29.945	2795.8	-0.55324	20.135	0.45228	30.300	0.033003	16.927	25.980	78.029	22.092	29.945	2795.8	-0.55324	20.135	0.45228
836.47	136.32	undefined	16.963	26.033	78.073	30.300	0.033003	16.963	26.033	78.073	22.096	29.948	2798.2	-0.55316	20.164	0.45295	30.300	0.033003	16.963	26.033	78.073	22.096	29.948	2798.2	-0.55316	20.164	0.45295
838.12	136.58	undefined	17.000	26.087	78.116	30.300	0.033003	17.000	26.087	78.116	22.100	29.951	2800.6	-0.55309	20.193	0.45361	30.300	0.033003	17.000	26.087	78.116	22.100	29.951	2800.6	-0.55309	20.193	0.45361
839.76	136.84	undefined	17.036	26.140	78.159	30.300	0.033003	17.036	26.140	78.159	22.104	29.954	2803.0	-0.55301	20.222	0.45428	30.300	0.033003	17.036	26.140	78.159	22.104	29.954	2803.0	-0.55301	20.222	0.45428
841.40	137.10	undefined	17.072	26.194	78.202	30.300	0.033003	17.072	26.194	78.202	22.107	29.957	2805.4	-0.55294	20.251	0.45494	30.300	0.033003	17.072	26.194	78.202	22.107	29.957	2805.4	-0.55294	20.251	0.45494
843.04	137.36	undefined	17.109	26.247	78.245	30.300	0.033003	17.109	26.247	78.245	22.111	29.959	2807.9	-0.55286	20.280	0.45561	30.300	0.033003	17.109	26.247	78.245	22.111	29.959	2807.9	-0.55286	20.280	0.45561
844.68	137.61	undefined	17.145	26.300	78.288	30.300	0.033003	17.145	26.300	78.288	22.115	29.962	2810.3	-0.55279	20.309	0.45627	30.300	0.033003	17.145	26.300	78.288	22.115	29.962	2810.3	-0.55279	20.309	0.45627
846.32	137.87	undefined	17.181	26.354	78.331	30.300	0.033003	17.181	26.354	78.331	22.119	29.965	2812.7	-0.55271	20.338	0.45694	30.300	0.033003	17.181	26.354	78.331	22.119	29.965	2812.7	-0.55271	20.338	0.45694
847.97	138.13	undefined	17.218	26.407	78.374	30.300	0.033003	17.218	26.407	78.374	22.123	29.968	2815.1	-0.55263	20.367	0.45760	30.300	0.033003	17.218	26.407	78.374	22.123	29.968	2815.1	-0.55263	20.367	0.45760
849.61	138.39	undefined	17.254	26.461	78.417	30.300	0.033003	17.254	26.461	78.417	22.127	29.971	2817.5	-0.55255	20.396	0.45827	30.300	0.033003	17.254	26.461	78.417	22.127	29.971	2817.5	-0.55255	20.396	0.45827
851.25	138.64	undefined	17.290	26.514	78.460	30.300	0.033003	17.290	26.514	78.460	22.131	29.974	2819.8	-0.55247	20.425	0.45894	30.300	0.033003	17.290	26.514	78.460	22.131	29.974	2819.8	-0.55247	20.425	0.45894
852.89	138.90	undefined	17.327	26.568	78.502	30.300	0.033003	17.327	26.568	78.502	22.135	29.977	2822.2	-0.55239	20.454	0.45960	30.300	0.033003	17.327	26.568	78.502	22.135	29.977	2822.2	-0.55239	20.454	0.45960
854.53	139.16	undefined	17.363	26.621	78.545	30.300	0.033003	17.363	26.621	78.545	22.139	29.980	2824.6	-0.55231	20.483	0.46027	30.300	0.033003	17.363	26.621	78.545	22.139	29.980	2824.6	-0.55231	20.483	0.46027
856.17	139.42	undefined	17.399	26.675	78.587	30.300	0.033003	17.399	26.675	78.587	22.143	29.983	2827.0	-0.55223	20.512	0.46094	30.300	0.033003	17.399	26.675	78.587	22.143	29.983	2827.0	-0.55223	20.512	0.46094
857.82	139.68	undefined	17.436	26.728	78.630	30.300	0.033003	17.436	26.728	78.630	22.147	29.986	2829.4	-0.55215	20.541	0.46160	30.300	0.033003	17.436	26.728	78.630	22.147	29.986	2829.4	-0.55215	20.541	0.46160
859.46	139.93	undefined	17.472	26.782	78.672	30.300	0.033003	17.472	26.782	78.672	22.151	29.989	2831.8	-0.55207	20.570	0.46227	30.300	0.033003	17.472	26.782	78.672	22.151	29.989	2831.8	-0.55207	20.570	0.46227
861.10	140.19	undefined	17.508	26.835	78.714	30.300	0.033003	17.508	26.835	78.714	22.155	29.992	2834.1	-0.55198	20.599	0.46294	30.300	0.033003	17.508	26.835	78.714	22.155	29.992	2834.1	-0.55198	20.599	0.46294
862.74	140.45	undefined	17.545	26.889	78.757	30.300	0.033003	17.545	26.889	78.757	22.159	29.996	2836.5	-0.55190	20.628	0.46360	30.300	0.033003	17.545	26.889	78.757	22.159	29.996	2836.5	-0.55190	20.628	0.46360
864.38	140.70	undefined	17.581	26.942	78.799	30.300	0.033003	17.581	26.942	78.799	22.163	29.999	2838.9	-0.55181	20.657	0.46427	30.300	0.033003	17.581	26.942	78.799	22.163	29.999	2838.9	-0.55181	20.657	0.46427
866.02	140.96	undefined	17.617	26.996	78.841	30.300	0.033003	17.617	26.996	78.841	22.167	30.002	2841.2	-0.55173	20.686	0.46494	30.300	0.033003	17.617	26.996	78.841	22.167	30.002	2841.2	-0.55173	20.686	0.46494
867.67	141.22	undefined	17.654	27.049	78.883	30.300	0.033003	17.654	27.049	78.883	22.171	30.005	2843.6	-0.55164	20.715	0.46561	30.300	0.033003	17.654	27.049	78.883	22.171	30.005	2843.6	-0.55164	20.715	0.46561
869.31	141.48	undefined	17.690	27.103	78.925	30.300	0.033003	17.690	27.103	78.925	22.175	30.008	2845.9	-0.55156	20.744	0.46627	30.300	0.033003	17.690	27.103	78.925	22.175	30.008	2845.9	-0.55156	20.744	0.46627
870.95	141.73	undefined	17.727	27.156	78.967	30.300	0.033003	17.727	27.156	78.967	22.180	30.011	2848.3	-0.55147	20.773	0.46694	30.300	0.033003	17.727	27.156	78.967	22.180	30.011	2848.3	-0.55147	20.773	0.46694
872.59	141.99	undefined	17.763	27.210	79.008	30.300	0.033003	17.763	27.210	79.008	22.184	30.015	2850.7	-0.55138	20.802	0.46761	30.300	0.033003	17.763	27.210	79.008	22.184	30.015	2850.7	-0.55138	20.802	0.46761
874.23	142.25	undefined	17.800	27.263	79.050	30.300	0.033003	17.800	27.263	79.050	22.188	30.018	2853.0	-0.55129	20.831	0.46828	30.300	0.033003	17.800	27.263	79.050	22.188	30.018	2853.0	-0.55129	20.831	0.46828
875.87	142.51	undefined	17.836	27.317	79.092	30.300	0.033003	17.836	27.317	79.092	22.192	30.021	2855.3	-0.55120	20.860	0.46895	30.300	0.033003	17.836	27.317	79.092	22.192	30.021	2855.3	-0.55120	20.860	0.46895
877.52	142.76	undefined	17.872	27.370	79.133	30.300	0.033003	17.872	27.370	79.133	22.196	30.025	2857.7	-0.55111	20.889	0.46962	30.300	0.033003	17.872	27.370	79.133	22.196	30.025	2857.7	-0.55111	20.889	0.46962
879.16	143.02	undefined	17.909	27.424	79.175	30.300	0.033003	17.909	27.424	79.175	22.201	30.028	2860.0	-0.55102	20.918	0.47028	30.300	0.033003	17.909	27.424	79.175	22.201	30.028	2860.0	-0.55102	20.918	0.47028
880.80	143.28	undefined	17.945	27.478	79.216	30.300	0.033003	17.945	27.478	79.216	22.205	30.031	2862.4	-0.55093	20.947	0.47095	30.300	0.033003	17.945	27.478	79.216	22.205	30.031	2862.4	-0.55093	20.947	0.47095
882.44	143.53	undefined	17.982	27.531	79.258	30.300	0.033003	17.982	27.531	79.258	22.209	30.035	2864.7	-0.55084	20.976	0.47162	30.300	0.033003	17.982	27.531	79.258	22.209	30.035	2864.7	-0.55084	20.976	0.47162
884.08	143.79	undefined	18.018	27.585	79.299	30.300	0.033003	18.018	27.585	79.299	22.213	30.038	2867.0	-0.55074	21.005	0.47229	30.300	0.033003	18.018	27.585	79.299	22.213	30.038	2867.0	-0.55074	21.005	0.47229
885.72	144.05	undefined	18.055	27.638	79.340	30.300	0.033003	18.055	27.638	79.340	22.218	30.041	2869.4	-0.55065	21.034	0.47296	30.300	0.033003	18.055	27.638	79.340	22.218	30.041	2869.4	-0.55065	21.034	0.47296
887.37	144.30	undefined	18.091	27.692	79.381	30.300	0.033003	18.091	27.692	79.381	22.222	30.045	2871.7	-0.55056	21.063	0.47363	30.300	0.033003	18.091	27.692	79.381	22.222	30.045	2871.7	-0.55056	21.063	0.47363
889.01	144.56	undefined	18.128	27.745	79.422	30.300	0.033003	18.128	27.745	79.422	22.226	30.048	2874.0	-0.55046	21.092	0.47430	30.300	0.033003	18.128	27.745	79.422	22.226	30.048	2874.0	-0.55046	21.092	0.47430
890.65	144.82	undefined	18.164	27.799	79.463	30.300	0.033003	18.164	27.799	79.463	22.231	30.052	2876.3	-0.55037	21.121	0.47497	30.300	0.033003	18.164	27.799	79.463	22.231	30.052	2876.3	-0.55037	21.121	0.47497
892.29	145.08	undefined	18.201	27.853	79.504	30.300	0.033003	18.201	27.853	79.504	22.235	30.055	2878.6	-0.55027	21.150	0.47564	30.300	0.033003	18.201	27.853	79.504	22.235	30.055	2878.6	-0.55027	21.150	0.47564
893.93	145.33	undefined	18.237	27.906	79.545	30.300	0.033003	18.237	27.906	79.545	22.239	30.059	2881.0	-0.55018	21.179	0.47631	30.300	0.033003	18.237	27.906	79.545	22.239	30.059	2881.0	-0.55018	21.179	0.47631
895.57	145.59	undefined	18.274	27.960	79.586	30.300	0.033003	18.274	27.960	79.586	22.244	30.062	2883.3	-0.55008	21.208	0.47698	30.300	0.033003	18.274	27.960	79.586	22.244	30.062	2883.3	-0.55008	21.208	0.47698
897.22	145.85	undefined	18.310	28.013	79.627	30.300	0.033003	18.310	28.013	79.627	22.248	30.066	2885.6	-0.54998	21.237	0.47765	30.300	0.033003	18.310	28.013	79.627	22.248	30.066	2885.6	-0.54998	21.237	0.47765
898.86	146.10	undefined	18.347	28.067	79.667	30.300	0.033003	18.347	28.067	79.667	22.253	30.069	2887.9	-0.54988	21.266	0.47833	30.300	0.033003	18.347	28.067	79.667	22.253	30.069	2887.9	-0.54988	21.266	0.47833
900.50	146.36	undefined	18.383	28.121	79.708	30.300	0.033003	18.383	28.121	79.708	22.257	30.073	2890.2	-0.54978	21.295	0.47900	30.300	0.033003	18.383	28.121	79.708	22.257	30.073	2890.2	-0.54978	21.295	0.47900
902.14	146.62	undefined	18.420	28.174	79.748	30.300	0.033003	18.420	28.174	79.748	22.262	30.077	2892.5	-0.54969	21.324	0.47967	30.300	0.033003	18.420	28.174	79.748	22.262	30.077	2892.5	-0.54969	21.324	0.47967
903.78	146.87	undefined	18.456	28.228	79.789	30.300	0.033003	18.456	28.228	79.789	22.266	30.080	2894.8	-0.54959	21.353	0.48034	30.300	0.033003	18.456	28.228	79.789	22.266	30.080	2894.8	-0.54959	21.353	0.48034
905.42	147.13	undefined	18.493	28.281	79.829	30.300	0.033003	18.493	28.281	79.829	22.271	30.084	2897.1	-0.54949	21.383	0.48101	30.300	0.033003	18.493	28.281	79.829	22.271	30.084	2897.1	-0.54949	21.383	0.48101
907.07	147.39	undefined	18.529	28.335	79.870	30.300	0.033003	18.529	28.335	79.870	22.275	30.087	2899.4	-0.54938	21.412	0.48168	30.300	0.033003	18.529	28.335	79.870	22.275	30.087	2899.4	-0.54938	21.412	0.48168
908.71	147.64	undefined	18.566	28.389	79.910	30.300	0.033003	18.566	28.389	79.910	22.280	30.091	2901.6	-0.54928	21.441	0.48236	30.300	0.033003	18.566	28.389	79.910	22.280	30.091	2901.6	-0.54928	21.441	0.48236
910.35	147.90	undefined	18.603	28.442	79.950	30.300	0.033003	18.603	28.442	79.950	22.284	30.095	2903.9	-0.54918	21.470	0.48303	30.300	0.033003	18.603	28.442	79.950	22.284	30.095	2903.9	-0.54918	21.470	0.48303
911.99	148.15	undefined	18.639	28.496	79.990	30.300	0.033003	18.639	28.496	79.990	22.289	30.099	2906.2	-0.54908	21.499	0.48370	30.300	0.033003	18.639	28.496	79.990	22.289	30.099	2906.2	-0.54908	21.499	0.48370
913.63	148.41	undefined	18.676	28.550	80.030	30.300	0.033003	18.676	28.550	80.030	22.293	30.102	2908.5	-0.54897	21.528	0.48437	30.300	0.033003	18.676	28.550	80.030	22.293	30.102	2908.5	-0.54897	21.528	0.48437
915.27	148.67	undefined	18.712	28.603	80.070	30.300	0.033003	18.712	28.603	80.070	22.298	30.106	2910.8	-0.54887	21.557	0.48505	30.300	0.033003	18.712	28.603	80.070	22.298	30.106	2910.8	-0.54887	21.557	0.48505
916.92	148.92	undefined	18.749	28.657	80.110	30.300	0.033003	18.749	28.657	80.110	22.303	30.110	2913.0	-0.54877	21.586	0.48572	30.300	0.033003	18.749	28.657	80.110	22.303	30.110	2913.0	-0.54877	21.586	0.48572
918.56	149.18	undefined	18.786	28.711	80.150	30.300	0.033003	18.786	28.711	80.150	22.307	30.114	2915.3	-0.54866	21.615	0.48639	30.300	0.033003	18.786	28.711	80.150	22.307	30.114	2915.3	-0.54866	21.615	0.48639
920.20	149.44	undefined	18.822	28.764	80.190	30.300	0.033003	18.822	28.764	80.190	22.312	30.117	2917.6	-0.54856	21.644	0.48707	30.300	0.033003	18.822	28.764	80.190	22.312	30.117	2917.6	-0.54856	21.644	0.48707
921.84	149.69	undefined	18.859	28.818	80.230	30.300	0.033003	18.859	28.818	80.230	22.316	30.121	2919.9	-0.54845	21.673	0.48774	30.300	0.033003	18.859	28.818	80.230	22.316	30.121	2919.9	-0.54845	21.673	0.48774
923.48	149.95	undefined	18.895	28.872	80.270	30.300	0.033003	18.895	28.872	80.270	22.321	30.125	2922.1	-0.54834	21.702	0.48841	30.300	0.033003	18.895	28.872	80.270	22.321	30.125	2922.1	-0.54834	21.702	0.48841
925.12	150.20	undefined	18.932	28.925	80.309	30.300	0.033003	18.932	28.925	80.309	22.326	30.129	2924.4	-0.54824	21.731	0.48909	30.300	0.033003	18.932	28.925	80.309	22.326	30.129	2924.4	-0.54824	21.731	0.48909
926.77	150.46	undefined	18.969	28.979	80.349	30.300	0.033003	18.969	28.979	80.349	22.330	30.133	2926.6	-0.54813	21.760	0.48976	30.300	0.033003	18.969	28.979	80.349	22.330	30.133	2926.6	-0.54813	21.760	0.48976
928.41	150.72	undefined	19.005	29.033	80.388	30.300	0.033003	19.005	29.033	80.388	22.335	30.137	2928.9	-0.54802	21.789	0.49043	30.300	0.033003	19.005	29.033	80.388	22.335	30.137	2928.9	-0.54802	21.789	0.49043
930.05	150.97	undefined	19.042	29.086	80.428	30.300	0.033003	19.042	29.086	80.428	22.340	30.141	2931.1	-0.54791	21.818	0.49111	30.300	0.033003	19.042	29.086	80.428	22.340	30.141	2931.1	-0.54791	21.818	0.49111
931.69	151.23	undefined	19.079	29.140	80.467	30.300	0.033003	19.079	29.140	80.467	22.345	30.145	2933.4	-0.54780	21.847	0.49178	30.300	0.033003	19.079	29.140	80.467	22.345	30.145	2933.4	-0.54780	21.847	0.49178
933.33	151.49	undefined	19.115	29.194	80.507	30.300	0.033003	19.115	29.194	80.507	22.349	30.149	2935.6	-0.54769	21.876	0.49246	30.300	0.033003	19.115	29.194	80.507	22.349	30.149	2935.6	-0.54769	21.876	0.49246
934.97	151.74	undefined	19.152	29.248	80.546	30.300	0.033003	19.152	29.248	80.546	22.354	30.153	2937.9	-0.54758	21.905	0.49313	30.300	0.033003	19.152	29.248	80.546	22.354	30.153	2937.9	-0.54758	21.905	0.49313
936.62	152.00	undefined	19.189	29.301	80.585	30.300	0.033003	19.189	29.301	80.585	22.359	30.157	2940.1	-0.54747	21.935	0.49381	30.300	0.033003	19.189	29.301	80.585	22.359	30.157	2940.1	-0.54747	21.935	0.49381
938.26	152.25	undefined	19.226	29.355	80.624	30.300	0.033003	19.226	29.355	80.624	22.364	30.161	2942.4	-0.54736	21.964	0.49449	30.300	0.033003	19.226	29.355	80.624	22.364	30.161	2942.4	-0.54736	21.964	0.49449
939.90	152.51	undefined	19.262	29.409	80.663	30.300	0.033003	19.262	29.409	80.663	22.369	30.165	2944.6	-0.54725	21.993	0.49516	30.300	0.033003	19.262	29.409	80.663	22.369	30.165	2944.6	-0.54725	21.993	0.49516
941.54	152.76	undefined	19.299	29.463	80.702	30.300	0.033003	19.299	29.463	80.702	22.373	30.169	2946.8	-0.54713	22.022	0.49584	30.300	0.033003	19.299	29.463	80.702	22.373	30.169	2946.8	-0.54713	22.022	0.49584
943.18	153.02	undefined	19.336	29.516	80.741	30.300	0.033003	19.336	29.516	80.741	22.378	30.173	2949.1	-0.54702	22.051	0.49651	30.300	0.033003	19.336	29.516	80.741	22.378	30.173	2949.1	-0.54702	22.051	0.49651
944.82	153.28	undefined	19.373	29.570	80.780	30.300	0.033003	19.373	29.570	80.780	22.383	30.177	2951.3	-0.54691	22.080	0.49719	30.300	0.033003	19.373	29.570	80.780	22.383	30.177	2951.3	-0.54691	22.080	0.49719
946.47	153.53	undefined	19.409	29.624	80.819	30.300	0.033003	19.409	29.624	80.819	22.388	30.181	2953.5	-0.54679	22.109	0.49787	30.300	0.033003	19.409	29.624	80.819	22.388	30.181	2953.5	-0.54679	22.109	0.49787
948.11	153.79	undefined	19.446	29.678	80.858	30.300	0.033003	19.446	29.678	80.858	22.393	30.185	2955.7	-0.54668	22.138	0.49854	30.300	0.033003	19.446	29.678	80.858	22.393	30.185	2955.7	-0.54668	22.138	0.49854
949.75	154.04	undefined	19.483	29.731	80.897	30.300	0.033003	19.483	29.731	80.897	22.398	30.189	2958.0	-0.54657	22.167	0.49922	30.300	0.033003	19.483	29.731	80.897	22.398	30.189	2958.0	-0.54657	22.167	0.49922
951.39	154.30	undefined	19.520	29.785	80.935	30.300	0.033003	19.520	29.785	80.935	22.403	30.193	2960.2	-0.54645	22.196	0.49990	30.300	0.033003	19.520	29.785	80.935	22.403	30.193	2960.2	-0.54645	22.196	0.49990
953.03	154.55	undefined	19.556	29.839	80.974	30.300	0.033003	19.556	29.839	80.974	22.408	30.198	2962.4	-0.54633	22.225	0.50057	30.300	0.033003	19.556	29.839	80.974	22.408	30.198	2962.4	-0.54633	22.225	0.50057
954.67	154.81	undefined	19.593	29.893	81.013	30.300	0.033003	19.593	29.893	81.013	22.413	30.202	2964.6	-0.54622	22.255	0.50125	30.300	0.033003	19.593	29.893	81.013	22.413	30.202	2964.6	-0.54622	22.255	0.50125
956.32	155.07	undefined	19.630	29.947	81.051	30.300	0.033003	19.630	29.947	81.051	22.418	30.206	2966.8	-0.54610	22.284	0.50193	30.300	0.033003	19.630	29.947	81.051	22.418	30.206	2966.8	-0.54610	22.284	0.50193
957.96	155.32	undefined	19.667	30.000	81.090	30.300	0.033003	19.667	30.000	81.090	22.423	30.210	2969.0	-0.54598	22.313	0.50261	30.300	0.033003	19.667	30.000	81.090	22.423	30.210	2969.0	-0.54598	22.313	0.50261
959.60	155.58	undefined	19.704	30.054	81.128	30.300	0.033003	19.704	30.054	81.128	22.428	30.214	2971.2	-0.54587	22.342	0.50328	30.300	0.033003	19.704	30.054	81.128	22.428	30.214	2971.2	-0.54587	22.342	0.50328
961.24	155.83	undefined	19.740	30.108	81.166	30.300	0.033003	19.740	30.108	81.166	22.433	30.219	2973.4	-0.54575	22.371	0.50396	30.300	0.033003	19.740	30.108	81.166	22.433	30.219	2973.4	-0.54575	22.371	0.50396
962.88	156.09	undefined	19.777	30.162	81.205	30.300	0.033003	19.777	30.162	81.205	22.438	30.223	2975.6	-0.54563	22.400	0.50464	30.300	0.033003	19.777	30.162	81.205	22.438	30.223	2975.6	-0.54563	22.400	0.50464
964.52	156.34	undefined	19.814	30.216	81.243	30.300	0.033003	19.814	30.216	81.243	22.443	30.227	2977.8	-0.54551	22.429	0.50532	30.300	0.033003	19.814	30.216	81.243	22.443	30.227	2977.8	-0.54551	22.429	0.50532
966.17	156.60	undefined	19.851	30.269	81.281	30.300	0.033003	19.851	30.269	81.281	22.448	30.232	2980.0	-0.54539	22.458	0.50600	30.300	0.033003	19.851	30.269	81.281	22.448	30.232	2980.0	-0.54539	22.458	0.50600
967.81	156.85	undefined	19.888	30.323	81.319	30.300	0.033003	19.888	30.323	81.319	22.453	30.236	2982.2	-0.54527	22.488	0.50668	30.300	0.033003	19.888	30.323	81.319	22.453	30.236	2982.2	-0.54527	22.488	0.50668
969.45	157.11	undefined	19.925	30.377	81.357	30.300	0.033003	19.925	30.377	81.357	22.458	30.240	2984.4	-0.54515	22.517	0.50736	30.300	0.033003	19.925	30.377	81.357	22.458	30.240	2984.4	-0.54515	22.517	0.50736
971.09	157.36	undefined	19.961	30.431	81.395	30.300	0.033003	19.961	30.431	81.395	22.463	30.245	2986.6	-0.54503	22.546	0.50804	30.300	0.033003	19.961	30.431	81.395	22.463	30.245	2986.6	-0.54503	22.546	0.50804
972.73	157.62	undefined	19.998	30.485	81.433	30.300	0.033003	19.998	30.485	81.433	22.468	30.249	2988.8	-0.54491	22.575	0.50872	30.300	0.033003	19.998	30.485	81.433	22.468	30.249	2988.8	-0.54491	22.575	0.50872
974.37	157.87	undefined	20.035	30.539	81.471	30.300	0.033003	20.035	30.539	81.471	22.473	30.254	2990.9	-0.54478	22.604	0.50940	30.300	0.033003	20.035	30.539	81.471	22.473	30.254	2990.9	-0.54478	22.604	0.50940
976.02	158.13	undefined	20.072	30.593	81.509	30.300	0.033003	20.072	30.593	81.509	22.478	30.258	2993.1	-0.54466	22.633	0.51008	30.300	0.033003	20.072	30.593	81.509	22.478	30.258	2993.1	-0.54466	22.633	0.51008
977.66	158.39	undefined	20.109	30.647	81.547	30.300	0.033003	20.109	30.647	81.547	22.484	30.262	2995.3	-0.54454	22.662	0.51076	30.300	0.033003	20.109	30.647	81.547	22.484	30.262	2995.3	-0.54454	22.662	0.51076
979.30	158.64	undefined	20.146	30.700	81.584	30.300	0.033003	20.146	30.700	81.584	22.489	30.267	2997.5	-0.54441	22.692	0.51144	30.300	0.033003	20.146	30.700	81.584	22.489	30.267	2997.5	-0.54441	22.692	0.51144
980.94	158.90	undefined	20.183	30.754	81.622	30.300	0.033003	20.183	30.754	81.622	22.494	30.271	2999.6	-0.54429	22.721	0.51212	30.300	0.033003	20.183	30.754	81.622	22.494	30.271	2999.6	-0.54429	22.721	0.51212
982.58	159.15	undefined	20.220	30.808	81.660	30.300	0.033003	20.220	30.808	81.660	22.499	30.276	3001.8	-0.54417	22.750	0.51280	30.300	0.033003	20.220	30.808	81.660	22.499	30.276	3001.8	-0.54417	22.750	0.51280
984.22	159.41	undefined	20.257	30.862	81.697	30.300	0.033003	20.257	30.862	81.697	22.504	30.280	3004.0	-0.54404	22.779	0.51348	30.300	0.033003	20.257	30.862	81.697	22.504	30.280	3004.0	-0.54404	22.779	0.51348
985.87	159.66	undefined	20.294	30.916	81.735	30.300	0.033003	20.294	30.916	81.735	22.510	30.285	3006.1	-0.54392	22.808	0.51416	30.300	0.033003	20.294	30.916	81.735	22.510	30.285	3006.1	-0.54392	22.808	0.51416
987.51	159.92	undefined	20.331	30.970	81.772	30.300	0.033003	20.331	30.970	81.772	22.515	30.289	3008.3	-0.54379	22.837	0.51484	30.300	0.033003	20.331	30.970	81.772	22.515	30.289	3008.3	-0.54379	22.837	0.51484
989.15	160.17	undefined	20.368	31.024	81.810	30.300	0.033003	20.368	31.024	81.810	22.520	30.294	3010.5	-0.54366	22.867	0.51552	30.300	0.033003	20.368	31.024	81.810	22.520	30.294	3010.5	-0.54366	22.867	0.51552
990.79	160.43	undefined	20.405	31.078	81.847	30.300	0.033003	20.405	31.078	81.847	22.525	30.299	3012.6	-0.54354	22.896	0.51620	30.300	0.033003	20.405	31.078	81.847	22.525	30.299	3012.6	-0.54354	22.896	0.51620
992.43	160.68	undefined	20.442	31.132	81.884	30.300	0.033003	20.442	31.132	81.884	22.531	30.303	3014.8	-0.54341	22.925	0.51689	30.300	0.033003	20.442	31.132	81.884	22.531	30.303	3014.8	-0.54341	22.925	0.51689
994.07	160.93	undefined	20.479	31.186	81.921	30.300	0.033003	20.479	31.186	81.921	22.536	30.308	3016.9	-0.54328	22.954	0.51757	30.300	0.033003	20.479	31.186	81.921	22.536	30.308	3016.9	-0.54328	22.954	0.51757
995.72	161.19	undefined	20.516	31.240	81.959	30.300	0.033003	20.516	31.240	81.959	22.541	30.312	3019.1	-0.54316	22.983	0.51825	30.300	0.033003	20.516	31.240	81.959	22.541	30.312	3019.1	-0.54316	22.983	0.51825
997.36	161.44	undefined	20.553	31.294	81.996	30.300	0.033003	20.553	31.294	81.996	22.547	30.317	3021.2	-0.54303	23.013	0.51893	30.300	0.033003	20.553	31.294	81.996	22.547	30.317	3021.2	-0.54303	23.013	0.51893
999.00	161.70	undefined	20.590	31.348	82.033	30.300	0.033003	20.590	31.348	82.033	22.552	30.322	3023.4	-0.54290	23.042	0.51962	30.300	0.033003	20.590	31.348	82.033	22.552	30.322	3023.4	-0.54290	23.042	0.51962
