#Temperature (K)	Pressure (MPa)	Quality (l+v)	Internal Energy (l+v, kJ/mol)	Enthalpy (l+v, kJ/mol)	Entropy (l+v, J/mol*K)	Density (l, kg/m3)	Volume (l, m3/kg)	Internal Energy (l, kJ/mol)	Enthalpy (l, kJ/mol)	Entropy (l, J/mol*K)	Cv (l, J/mol*K)	Cp (l, J/mol*K)	Sound Spd. (l, m/s)	Joule-Thomson (l, K/MPa)	Viscosity (l, uPa*s)	Therm. Cond. (l, W/m*K)	Density (v, kg/m3)	Volume (v, m3/kg)	Internal Energy (v, kJ/mol)	Enthalpy (v, kJ/mol)	Entropy (v, J/mol*K)	Cv (v, J/mol*K)	Cp (v, J/mol*K)	Sound Spd. (v, m/s)	Joule-Thomson (v, K/MPa)	Viscosity (v, uPa*s)	Therm. Cond. (v, W/m*K)
200.00	0.0086098	0.00024175	0.33681	0.33741	1.7050	728.67	0.0013724	0.33112	0.33132	1.6746	50.569	73.533	1983.1	-0.21747	516.02	0.61035	0.088673	11.277	23.845	25.498	127.51	26.007	34.717	359.00	161.94	6.9532	0.016028
202.00	0.010008	0.00027796	0.48479	0.48549	2.4412	726.37	0.0013767	0.47828	0.47852	2.4067	50.578	73.639	1970.6	-0.21643	494.20	0.60988	0.10211	9.7930	23.891	25.560	126.57	26.097	34.847	360.63	154.30	7.0052	0.016178
204.00	0.011595	0.00031856	0.63309	0.63389	3.1717	724.06	0.0013811	0.62566	0.62593	3.1327	50.583	73.752	1958.1	-0.21531	473.70	0.60929	0.11722	8.5313	23.937	25.622	125.66	26.192	34.985	362.23	147.10	7.0578	0.016330
206.00	0.013389	0.00036395	0.78171	0.78265	3.8968	721.76	0.0013855	0.77326	0.77358	3.8527	50.584	73.869	1945.7	-0.21414	454.42	0.60857	0.13413	7.4554	23.983	25.683	124.77	26.293	35.131	363.82	140.31	7.1109	0.016484
208.00	0.015412	0.00041455	0.93068	0.93176	4.6164	719.45	0.0013900	0.92111	0.92147	4.5670	50.579	73.990	1933.3	-0.21291	436.27	0.60772	0.15303	6.5348	24.028	25.743	123.90	26.398	35.285	365.38	133.90	7.1644	0.016642
210.00	0.017687	0.00047080	1.0800	1.0813	5.3310	717.13	0.0013944	1.0692	1.0696	5.2755	50.569	74.114	1920.9	-0.21161	419.19	0.60675	0.17408	5.7446	24.073	25.804	123.06	26.509	35.448	366.91	127.85	7.2185	0.016801
212.00	0.020237	0.00053318	1.2297	1.2311	6.0405	714.81	0.0013990	1.2175	1.2180	5.9785	50.554	74.241	1908.5	-0.21027	403.09	0.60566	0.19746	5.0642	24.118	25.863	122.23	26.626	35.620	368.43	122.14	7.2730	0.016963
214.00	0.023089	0.00060216	1.3798	1.3814	6.7452	712.48	0.0014035	1.3661	1.3667	6.6761	50.532	74.370	1896.2	-0.20886	387.91	0.60444	0.22338	4.4766	24.162	25.923	121.42	26.748	35.800	369.92	116.74	7.3279	0.017128
216.00	0.026269	0.00067826	1.5303	1.5322	7.4452	710.15	0.0014082	1.5149	1.5156	7.3684	50.504	74.500	1883.8	-0.20741	373.58	0.60311	0.25203	3.9677	24.206	25.981	120.64	26.875	35.990	371.38	111.63	7.3832	0.017296
218.00	0.029806	0.00076202	1.6813	1.6833	8.1407	707.81	0.0014128	1.6640	1.6648	8.0555	50.470	74.630	1871.5	-0.20591	360.05	0.60166	0.28363	3.5257	24.250	26.040	119.87	27.009	36.190	372.82	106.79	7.4388	0.017466
220.00	0.033731	0.00085398	1.8326	1.8350	8.8318	705.46	0.0014175	1.8134	1.8142	8.7375	50.430	74.761	1859.2	-0.20435	347.27	0.60009	0.31840	3.1407	24.293	26.097	119.12	27.148	36.399	374.24	102.21	7.4949	0.017640
222.00	0.038075	0.00095472	1.9844	1.9870	9.5185	703.10	0.0014223	1.9630	1.9639	9.4145	50.383	74.892	1846.8	-0.20275	335.17	0.59840	0.35658	2.8044	24.336	26.154	118.38	27.294	36.618	375.63	97.875	7.5513	0.017816
224.00	0.042873	0.0010648	2.1366	2.1396	10.201	700.73	0.0014271	2.1129	2.1139	10.087	50.331	75.022	1834.5	-0.20109	323.73	0.59660	0.39840	2.5100	24.378	26.211	117.66	27.445	36.847	376.99	93.764	7.6080	0.017995
226.00	0.048159	0.0011850	2.2893	2.2926	10.880	698.36	0.0014319	2.2630	2.2642	10.754	50.274	75.153	1822.1	-0.19938	312.90	0.59468	0.44412	2.2516	24.420	26.267	116.96	27.602	37.086	378.32	89.865	7.6650	0.018177
228.00	0.053971	0.0013158	2.4424	2.4462	11.554	695.97	0.0014368	2.4134	2.4147	11.416	50.211	75.283	1809.7	-0.19763	302.63	0.59266	0.49401	2.0243	24.462	26.322	116.27	27.766	37.335	379.63	86.166	7.7223	0.018362
230.00	0.060347	0.0014578	2.5960	2.6002	12.225	693.58	0.0014418	2.5640	2.5655	12.074	50.144	75.412	1797.3	-0.19582	292.89	0.59053	0.54834	1.8237	24.503	26.377	115.60	27.935	37.595	380.91	82.655	7.7799	0.018551
232.00	0.067329	0.0016119	2.7501	2.7548	12.892	691.17	0.0014468	2.7149	2.7165	12.727	50.072	75.541	1784.8	-0.19396	283.64	0.58829	0.60739	1.6464	24.544	26.431	114.95	28.110	37.865	382.16	79.321	7.8377	0.018742
234.00	0.074957	0.0017787	2.9046	2.9099	13.555	688.75	0.0014519	2.8660	2.8679	13.376	49.996	75.671	1772.3	-0.19204	274.87	0.58595	0.67146	1.4893	24.584	26.485	114.30	28.292	38.146	383.38	76.154	7.8958	0.018938
236.00	0.083276	0.0019590	3.0597	3.0655	14.215	686.33	0.0014570	3.0174	3.0195	14.020	49.916	75.799	1759.8	-0.19007	266.52	0.58350	0.74086	1.3498	24.623	26.538	113.67	28.479	38.438	384.57	73.145	7.9541	0.019136
238.00	0.092332	0.0021534	3.2153	3.2217	14.872	683.88	0.0014622	3.1690	3.1713	14.660	49.832	75.928	1747.2	-0.18805	258.59	0.58096	0.81591	1.2256	24.663	26.590	113.06	28.672	38.741	385.73	70.284	8.0126	0.019338
240.00	0.10217	0.0023628	3.3714	3.3785	15.525	681.43	0.0014675	3.3209	3.3234	15.295	49.746	76.058	1734.6	-0.18596	251.04	0.57831	0.89692	1.1149	24.701	26.641	112.45	28.870	39.054	386.85	67.564	8.0714	0.019544
242.00	0.11284	0.0025879	3.5280	3.5359	16.175	678.96	0.0014728	3.4730	3.4758	15.927	49.658	76.187	1721.9	-0.18382	243.85	0.57558	0.98424	1.0160	24.739	26.692	111.86	29.075	39.379	387.95	64.977	8.1303	0.019754
244.00	0.12440	0.0028296	3.6852	3.6939	16.822	676.49	0.0014782	3.6254	3.6285	16.554	49.567	76.318	1709.1	-0.18161	236.99	0.57274	1.0782	0.92745	24.777	26.742	111.28	29.285	39.714	389.02	62.517	8.1895	0.019967
246.00	0.13689	0.0030887	3.8430	3.8525	17.466	673.99	0.0014837	3.7780	3.7814	17.177	49.474	76.449	1696.3	-0.17933	230.45	0.56982	1.1792	0.84801	24.814	26.791	110.71	29.500	40.061	390.05	60.175	8.2488	0.020185
248.00	0.15037	0.0033660	4.0013	4.0118	18.106	671.49	0.0014892	3.9308	3.9347	17.796	49.381	76.582	1683.5	-0.17699	224.21	0.56681	1.2876	0.77662	24.851	26.840	110.15	29.720	40.419	391.05	57.946	8.3083	0.020407
250.00	0.16489	0.0036625	4.1601	4.1716	18.745	668.97	0.0014948	4.0840	4.0881	18.411	49.286	76.717	1670.5	-0.17458	218.25	0.56372	1.4038	0.71235	24.887	26.887	109.61	29.946	40.788	392.02	55.824	8.3679	0.020632
252.00	0.18052	0.0039790	4.3196	4.3322	19.380	666.43	0.0015005	4.2373	4.2419	19.022	49.191	76.853	1657.5	-0.17209	212.55	0.56054	1.5281	0.65439	24.922	26.934	109.07	30.176	41.168	392.95	53.803	8.4278	0.020863
254.00	0.19731	0.0043164	4.4797	4.4935	20.013	663.88	0.0015063	4.3909	4.3960	19.629	49.095	76.992	1644.5	-0.16953	207.09	0.55728	1.6611	0.60202	24.957	26.980	108.54	30.412	41.560	393.85	51.878	8.4877	0.021097
256.00	0.21532	0.0046757	4.6404	4.6554	20.643	661.32	0.0015121	4.5448	4.5503	20.232	49.000	77.133	1631.3	-0.16688	201.87	0.55394	1.8030	0.55463	24.992	27.025	108.03	30.652	41.963	394.72	50.044	8.5478	0.021337
258.00	0.23461	0.0050578	4.8017	4.8181	21.271	658.73	0.0015181	4.6989	4.7050	20.832	48.904	77.278	1618.1	-0.16416	196.86	0.55052	1.9544	0.51168	25.025	27.070	107.52	30.896	42.378	395.55	48.297	8.6081	0.021581
260.00	0.25525	0.0054638	4.9637	4.9816	21.896	656.14	0.0015241	4.8533	4.8600	21.428	48.810	77.425	1604.8	-0.16134	192.06	0.54705	2.1156	0.47268	25.058	27.113	107.02	31.145	42.805	396.35	46.631	8.6685	0.021830
262.00	0.27730	0.0058946	5.1264	5.1458	22.519	653.52	0.0015302	5.0080	5.0152	22.021	48.716	77.577	1591.5	-0.15844	187.46	0.54350	2.2872	0.43722	25.091	27.156	106.53	31.398	43.243	397.11	45.043	8.7291	0.022084
264.00	0.30082	0.0063512	5.2897	5.3107	23.140	650.89	0.0015363	5.1630	5.1708	22.610	48.624	77.732	1578.0	-0.15544	183.03	0.53989	2.4696	0.40493	25.123	27.197	106.04	31.654	43.694	397.84	43.529	8.7898	0.022343
266.00	0.32590	0.0068347	5.4538	5.4765	23.759	648.25	0.0015426	5.3182	5.3268	23.196	48.533	77.892	1564.5	-0.15234	178.78	0.53621	2.6633	0.37548	25.154	27.238	105.57	31.915	44.157	398.53	42.084	8.8506	0.022608
268.00	0.35259	0.0073463	5.6185	5.6431	24.376	645.58	0.0015490	5.4737	5.4830	23.779	48.443	78.057	1550.9	-0.14913	174.69	0.53247	2.8688	0.34858	25.185	27.278	105.10	32.179	44.633	399.18	40.706	8.9116	0.022878
270.00	0.38096	0.0078869	5.7840	5.8106	24.992	642.90	0.0015555	5.6295	5.6396	24.358	48.355	78.227	1537.3	-0.14582	170.75	0.52867	3.0866	0.32398	25.215	27.317	104.64	32.447	45.121	399.80	39.390	8.9727	0.023154
272.00	0.41110	0.0084577	5.9502	5.9789	25.605	640.20	0.0015620	5.7857	5.7966	24.935	48.269	78.402	1523.5	-0.14239	166.95	0.52481	3.3173	0.30145	25.244	27.354	104.19	32.719	45.622	400.38	38.134	9.0340	0.023436
274.00	0.44306	0.0090599	6.1172	6.1482	26.217	637.48	0.0015687	5.9421	5.9539	25.508	48.184	78.584	1509.7	-0.13885	163.29	0.52090	3.5614	0.28079	25.272	27.391	103.75	32.993	46.137	400.93	36.934	9.0955	0.023724
276.00	0.47693	0.0096947	6.2850	6.3183	26.827	634.74	0.0015754	6.0989	6.1117	26.078	48.102	78.772	1495.8	-0.13518	159.75	0.51693	3.8195	0.26181	25.300	27.427	103.31	33.271	46.666	401.44	35.788	9.1571	0.024018
278.00	0.51279	0.010363	6.4536	6.4894	27.435	631.98	0.0015823	6.2560	6.2698	26.645	48.022	78.966	1481.9	-0.13138	156.34	0.51290	4.0922	0.24437	25.327	27.461	102.87	33.552	47.210	401.91	34.693	9.2189	0.024318
280.00	0.55070	0.011067	6.6230	6.6614	28.043	629.20	0.0015893	6.4134	6.4283	27.210	47.944	79.168	1467.8	-0.12744	153.03	0.50883	4.3800	0.22831	25.354	27.495	102.45	33.836	47.768	402.34	33.645	9.2809	0.024625
282.00	0.59076	0.011807	6.7932	6.8345	28.648	626.40	0.0015964	6.5712	6.5872	27.772	47.869	79.378	1453.7	-0.12336	149.84	0.50472	4.6837	0.21351	25.379	27.527	102.03	34.123	48.341	402.74	32.643	9.3431	0.024940
284.00	0.63303	0.012584	6.9643	7.0085	29.253	623.58	0.0016036	6.7293	6.7466	28.331	47.796	79.595	1439.5	-0.11912	146.74	0.50055	5.0038	0.19985	25.404	27.558	101.61	34.413	48.930	403.09	31.685	9.4055	0.025261
286.00	0.67761	0.013401	7.1363	7.1836	29.856	620.74	0.0016110	6.8879	6.9064	28.887	47.725	79.821	1425.2	-0.11474	143.74	0.49635	5.3411	0.18723	25.428	27.588	101.20	34.705	49.536	403.41	30.767	9.4682	0.025589
288.00	0.72456	0.014258	7.3092	7.3597	30.459	617.87	0.0016185	7.0468	7.0667	29.441	47.657	80.056	1410.9	-0.11018	140.83	0.49210	5.6962	0.17555	25.451	27.617	100.80	35.001	50.160	403.69	29.888	9.5311	0.025925
290.00	0.77399	0.015156	7.4829	7.5370	31.060	614.99	0.0016261	7.2061	7.2275	29.993	47.591	80.301	1396.5	-0.10545	138.01	0.48782	6.0699	0.16475	25.473	27.644	100.40	35.299	50.801	403.92	29.046	9.5942	0.026269
292.00	0.82596	0.016098	7.6577	7.7153	31.660	612.07	0.0016338	7.3658	7.3888	30.542	47.527	80.555	1382.0	-0.10054	135.26	0.48350	6.4629	0.15473	25.494	27.671	100.00	35.601	51.461	404.12	28.239	9.6577	0.026621
294.00	0.88058	0.017085	7.8333	7.8948	32.260	609.14	0.0016417	7.5260	7.5506	31.089	47.467	80.821	1367.4	-0.095438	132.60	0.47914	6.8760	0.14543	25.514	27.695	99.609	35.905	52.142	404.27	27.464	9.7215	0.026981
296.00	0.93792	0.018118	8.0100	8.0754	32.859	606.17	0.0016497	7.6866	7.7130	31.634	47.408	81.097	1352.7	-0.090133	130.00	0.47475	7.3101	0.13680	25.534	27.719	99.222	36.212	52.843	404.39	26.721	9.7856	0.027350
298.00	0.99807	0.019200	8.1876	8.2573	33.457	603.19	0.0016579	7.8477	7.8759	32.177	47.352	81.385	1338.0	-0.084616	127.47	0.47033	7.7658	0.12877	25.552	27.741	98.838	36.522	53.566	404.46	26.008	9.8501	0.027729
300.00	1.0611	0.020331	8.3663	8.4403	34.054	600.17	0.0016662	8.0092	8.0394	32.718	47.299	81.685	1323.2	-0.078876	125.00	0.46589	8.2443	0.12130	25.570	27.762	98.459	36.834	54.313	404.49	25.322	9.9150	0.028116
302.00	1.1272	0.021513	8.5459	8.6246	34.651	597.13	0.0016747	8.1713	8.2034	33.257	47.248	81.998	1308.3	-0.072900	122.60	0.46141	8.7463	0.11433	25.586	27.781	98.082	37.150	55.084	404.47	24.664	9.9804	0.028513
304.00	1.1963	0.022749	8.7267	8.8102	35.248	594.06	0.0016833	8.3339	8.3682	33.794	47.200	82.325	1293.4	-0.066676	120.25	0.45692	9.2728	0.10784	25.601	27.798	97.709	37.470	55.881	404.41	24.030	10.046	0.028921
306.00	1.2686	0.024040	8.9085	8.9970	35.844	590.95	0.0016922	8.4970	8.5335	34.329	47.154	82.666	1278.3	-0.060189	117.96	0.45240	9.8249	0.10178	25.615	27.814	97.338	37.792	56.705	404.31	23.420	10.113	0.029339
308.00	1.3442	0.025388	9.0914	9.1852	36.440	587.82	0.0017012	8.6606	8.6996	34.863	47.111	83.023	1263.2	-0.053426	115.72	0.44785	10.404	0.096121	25.628	27.829	96.971	38.118	57.559	404.16	22.834	10.179	0.029768
310.00	1.4231	0.026796	9.2754	9.3748	37.035	584.66	0.0017104	8.8249	8.8663	35.395	47.071	83.395	1248.0	-0.046370	113.52	0.44329	11.010	0.090828	25.640	27.841	96.605	38.447	58.443	403.97	22.268	10.247	0.030208
312.00	1.5055	0.028265	9.4606	9.5657	37.631	581.46	0.0017198	8.9897	9.0338	35.926	47.032	83.785	1232.7	-0.039005	111.38	0.43871	11.645	0.085873	25.651	27.853	96.242	38.780	59.361	403.73	21.723	10.315	0.030660
314.00	1.5915	0.029797	9.6469	9.7580	38.226	578.23	0.0017294	9.1551	9.2020	36.455	46.997	84.193	1217.4	-0.031312	109.27	0.43411	12.310	0.081233	25.660	27.862	95.881	39.116	60.313	403.44	21.198	10.384	0.031125
316.00	1.6811	0.031395	9.8345	9.9518	38.821	574.97	0.0017392	9.3212	9.3710	36.983	46.964	84.620	1201.9	-0.023271	107.21	0.42950	13.007	0.076882	25.668	27.869	95.522	39.456	61.302	403.10	20.690	10.454	0.031604
318.00	1.7745	0.033062	10.023	10.147	39.417	571.67	0.0017493	9.4880	9.5409	37.510	46.934	85.068	1186.4	-0.014861	105.19	0.42488	13.736	0.072801	25.675	27.875	95.165	39.801	62.331	402.71	20.200	10.524	0.032096
320.00	1.8718	0.034799	10.213	10.344	40.012	568.33	0.0017595	9.6555	9.7116	38.036	46.906	85.537	1170.8	-0.0060591	103.20	0.42024	14.500	0.068968	25.680	27.879	94.809	40.149	63.402	402.28	19.727	10.596	0.032602
322.00	1.9730	0.036611	10.404	10.542	40.608	564.95	0.0017701	9.8237	9.8831	38.561	46.881	86.029	1155.0	0.0031597	101.25	0.41560	15.298	0.065366	25.684	27.880	94.454	40.502	64.519	401.79	19.269	10.668	0.033124
324.00	2.0782	0.038498	10.597	10.742	41.204	561.53	0.0017809	9.9926	10.056	39.086	46.858	86.546	1139.2	0.012823	99.337	0.41094	16.135	0.061978	25.686	27.880	94.099	40.859	65.684	401.25	18.826	10.742	0.033662
326.00	2.1876	0.040466	10.791	10.943	41.800	558.07	0.0017919	10.162	10.229	39.609	46.839	87.090	1123.3	0.022960	97.452	0.40628	17.010	0.058790	25.687	27.878	93.746	41.221	66.901	400.66	18.398	10.817	0.034218
328.00	2.3013	0.042515	10.986	11.146	42.396	554.56	0.0018032	10.333	10.404	40.132	46.822	87.662	1107.3	0.033603	95.598	0.40161	17.925	0.055787	25.687	27.873	93.393	41.588	68.175	400.01	17.983	10.893	0.034792
330.00	2.4194	0.044651	11.182	11.351	42.994	551.01	0.0018149	10.504	10.579	40.654	46.808	88.265	1091.2	0.044787	93.773	0.39694	18.884	0.052956	25.684	27.866	93.040	41.961	69.508	399.31	17.580	10.970	0.035385
332.00	2.5420	0.046877	11.380	11.557	43.591	547.41	0.0018268	10.677	10.756	41.177	46.797	88.900	1075.0	0.056551	91.975	0.39226	19.887	0.050285	25.680	27.857	92.687	42.338	70.907	398.55	17.190	11.049	0.035999
334.00	2.6691	0.049196	11.579	11.765	44.189	543.76	0.0018391	10.850	10.933	41.698	46.789	89.571	1058.6	0.068938	90.203	0.38758	20.936	0.047764	25.674	27.846	92.333	42.721	72.376	397.73	16.811	11.130	0.036635
336.00	2.8009	0.051612	11.780	11.975	44.788	540.05	0.0018517	11.024	11.112	42.220	46.785	90.280	1042.2	0.081993	88.456	0.38289	22.035	0.045382	25.667	27.832	91.980	43.110	73.920	396.85	16.443	11.212	0.037295
338.00	2.9376	0.054130	11.982	12.187	45.388	536.30	0.0018646	11.199	11.293	42.742	46.784	91.031	1025.6	0.095769	86.732	0.37821	23.185	0.043131	25.657	27.815	91.625	43.504	75.548	395.92	16.085	11.296	0.037980
340.00	3.0792	0.056754	12.185	12.400	45.989	532.48	0.0018780	11.376	11.474	43.264	46.786	91.828	1008.9	0.11032	85.030	0.37352	24.390	0.041001	25.645	27.796	91.269	43.905	77.264	394.92	15.737	11.382	0.038693
342.00	3.2258	0.059489	12.391	12.616	46.590	528.60	0.0018918	11.553	11.657	43.787	46.792	92.673	992.10	0.12572	83.349	0.36884	25.652	0.038984	25.632	27.773	90.911	44.312	79.079	393.85	15.398	11.471	0.039436
344.00	3.3776	0.062341	12.597	12.833	47.193	524.66	0.0019060	11.732	11.841	44.310	46.802	93.574	975.13	0.14202	81.688	0.36416	26.974	0.037073	25.616	27.748	90.552	44.727	81.000	392.72	15.068	11.562	0.040211
346.00	3.5347	0.065315	12.806	13.052	47.796	520.65	0.0019207	11.912	12.027	44.834	46.817	94.534	958.02	0.15931	80.046	0.35947	28.359	0.035262	25.598	27.720	90.190	45.148	83.039	391.52	14.747	11.655	0.041021
348.00	3.6972	0.068418	13.015	13.273	48.401	516.57	0.0019358	12.093	12.215	45.359	46.836	95.559	940.76	0.17768	78.422	0.35479	29.812	0.033543	25.577	27.689	89.826	45.576	85.206	390.26	14.434	11.752	0.041869
350.00	3.8652	0.071656	13.227	13.497	49.007	512.42	0.0019515	12.275	12.404	45.885	46.859	96.658	923.34	0.19722	76.814	0.35012	31.336	0.031912	25.554	27.655	89.459	46.013	87.515	388.92	14.128	11.852	0.042760
352.00	4.0388	0.075036	13.440	13.722	49.615	508.18	0.0019678	12.459	12.595	46.412	46.888	97.837	905.75	0.21805	75.223	0.34544	32.936	0.030362	25.529	27.617	89.089	46.457	89.981	387.50	13.829	11.955	0.043696
354.00	4.2183	0.078567	13.655	13.950	50.224	503.86	0.0019847	12.645	12.788	46.942	46.922	99.106	887.99	0.24029	73.646	0.34076	34.617	0.028888	25.500	27.575	88.715	46.909	92.622	386.01	13.536	12.061	0.044684
356.00	4.4036	0.082256	13.872	14.179	50.834	499.45	0.0020022	12.832	12.983	47.473	46.963	100.48	870.03	0.26407	72.082	0.33609	36.383	0.027486	25.469	27.530	88.337	47.370	95.457	384.45	13.250	12.172	0.045728
358.00	4.5949	0.086115	14.091	14.411	51.447	494.95	0.0020204	13.022	13.180	48.007	47.010	101.96	851.89	0.28957	70.531	0.33142	38.240	0.026150	25.435	27.481	87.954	47.840	98.510	382.79	12.970	12.288	0.046834
360.00	4.7925	0.090152	14.311	14.646	52.061	490.34	0.0020394	13.213	13.379	48.543	47.064	103.57	833.53	0.31697	68.992	0.32675	40.196	0.024878	25.397	27.427	87.566	48.320	101.81	381.06	12.695	12.408	0.048010
362.00	4.9963	0.094380	14.534	14.882	52.677	485.62	0.0020592	13.406	13.581	49.082	47.125	105.34	814.95	0.34647	67.464	0.32207	42.257	0.023665	25.356	27.369	87.172	48.809	105.38	379.23	12.425	12.533	0.049264
364.00	5.2066	0.098812	14.758	15.121	53.296	480.78	0.0020800	13.601	13.785	49.625	47.196	107.26	796.14	0.37831	65.944	0.31740	44.431	0.022507	25.311	27.307	86.772	49.309	109.28	377.32	12.160	12.665	0.050606
366.00	5.4235	0.10346	14.985	15.363	53.916	475.81	0.0021017	13.799	13.993	50.172	47.276	109.38	777.08	0.41279	64.433	0.31272	46.728	0.021400	25.262	27.239	86.364	49.820	113.53	375.30	11.899	12.803	0.052046
368.00	5.6471	0.10835	15.213	15.608	54.540	470.70	0.0021245	13.999	14.203	50.723	47.366	111.73	757.75	0.45023	62.929	0.30803	49.158	0.020343	25.209	27.166	85.948	50.342	118.20	373.19	11.642	12.948	0.053599
370.00	5.8776	0.11348	15.444	15.855	55.166	465.44	0.0021485	14.202	14.417	51.280	47.468	114.34	738.15	0.49100	61.430	0.30334	51.732	0.019331	25.152	27.087	85.523	50.877	123.35	370.97	11.388	13.101	0.055280
372.00	6.1152	0.11889	15.678	16.105	55.795	460.01	0.0021739	14.408	14.634	51.842	47.583	117.26	718.24	0.53558	59.935	0.29864	54.463	0.018361	25.089	27.001	85.087	51.423	129.07	368.63	11.137	13.263	0.057108
374.00	6.3601	0.12460	15.914	16.358	56.427	454.40	0.0022007	14.617	14.856	52.412	47.713	120.55	698.02	0.58448	58.442	0.29393	57.369	0.017431	25.021	26.909	84.641	51.982	135.45	366.18	10.889	13.435	0.059104
376.00	6.6123	0.13063	16.152	16.614	57.063	448.59	0.0022292	14.831	15.082	52.989	47.860	124.28	677.46	0.63835	56.949	0.28920	60.466	0.016538	24.948	26.810	84.181	52.554	142.63	363.61	10.642	13.618	0.061296
378.00	6.8721	0.13701	16.393	16.873	57.703	442.55	0.0022597	15.048	15.312	53.575	48.026	128.55	656.53	0.69797	55.453	0.28446	63.777	0.015680	24.867	26.702	83.707	53.140	150.79	360.91	10.398	13.814	0.063717
380.00	7.1397	0.14379	16.637	17.136	58.347	436.25	0.0022923	15.270	15.549	54.171	48.214	133.49	635.22	0.76426	53.953	0.27970	67.327	0.014853	24.780	26.586	83.216	53.739	160.13	358.07	10.154	14.025	0.066407
382.00	7.4153	0.15100	16.885	17.402	58.996	429.67	0.0023274	15.497	15.791	54.779	48.427	139.27	613.50	0.83838	52.445	0.27491	71.147	0.014055	24.684	26.459	82.706	54.354	170.97	355.09	9.9100	14.251	0.069419
384.00	7.6991	0.15871	17.135	17.672	59.650	422.76	0.0023654	15.731	16.041	55.401	48.669	146.11	591.34	0.92174	50.926	0.27011	75.276	0.013284	24.580	26.322	82.174	54.989	183.75	351.95	9.6651	14.497	0.072820
386.00	7.9913	0.16696	17.389	17.947	60.310	415.47	0.0024069	15.971	16.298	56.039	48.947	154.35	568.71	1.0162	49.390	0.26530	79.761	0.012537	24.465	26.171	81.616	55.653	199.06	348.65	9.4175	14.766	0.076698
388.00	8.2922	0.17586	17.647	18.226	60.976	407.73	0.0024526	16.219	16.566	56.698	49.267	164.46	545.56	1.1239	47.833	0.26049	84.665	0.011811	24.338	26.006	81.027	56.361	217.84	345.15	9.1650	15.061	0.081176
390.00	8.6020	0.18549	17.909	18.509	61.650	399.48	0.0025033	16.477	16.844	57.380	49.639	177.15	521.84	1.2481	46.246	0.25571	90.067	0.011103	24.196	25.822	80.401	57.139	241.51	341.41	8.9047	15.388	0.086425
392.00	8.9210	0.19599	18.176	18.798	62.332	390.59	0.0025603	16.747	17.136	58.091	50.077	193.56	497.43	1.3927	44.622	0.25101	96.077	0.010408	24.037	25.618	79.729	58.027	272.38	337.37	8.6323	15.755	0.092700
394.00	9.2497	0.20754	18.448	19.093	63.024	380.90	0.0026253	17.032	17.445	58.841	50.609	215.66	472.14	1.5640	42.945	0.24651	102.85	0.0097230	23.856	25.387	78.998	59.092	314.49	332.92	8.3423	16.172	0.10040
396.00	9.5882	0.22040	18.726	19.395	63.728	370.21	0.0027012	17.335	17.776	59.639	51.288	247.08	445.53	1.7709	41.195	0.24243	110.61	0.0090405	23.647	25.123	78.192	60.446	375.51	327.88	8.0262	16.655	0.11018
398.00	9.9372	0.23494	19.011	19.705	64.446	358.13	0.0027923	17.663	18.136	60.505	52.240	295.62	416.75	2.0290	39.340	0.23926	119.74	0.0083515	23.399	24.813	77.280	62.294	471.90	321.92	7.6714	17.230	0.12327
400.00	10.297	0.25171	19.305	20.023	65.182	344.01	0.0029069	18.030	18.539	61.472	53.786	381.29	383.98	2.3671	37.319	0.23810	130.89	0.0076402	23.095	24.435	76.212	65.066	646.36	314.35	7.2565	17.944	0.14234


