#Temperature (K)	Pressure (MPa)	Quality (l+v)	Internal Energy (l+v, kJ/mol)	Enthalpy (l+v, kJ/mol)	Entropy (l+v, J/mol*K)	Density (l, kg/m3)	Volume (l, m3/kg)	Internal Energy (l, kJ/mol)	Enthalpy (l, kJ/mol)	Entropy (l, J/mol*K)	Cv (l, J/mol*K)	Cp (l, J/mol*K)	Sound Spd. (l, m/s)	Joule-Thomson (l, K/MPa)	Viscosity (l, uPa*s)	Therm. Cond. (l, W/m*K)	Density (v, kg/m3)	Volume (v, m3/kg)	Internal Energy (v, kJ/mol)	Enthalpy (v, kJ/mol)	Entropy (v, J/mol*K)	Cv (v, J/mol*K)	Cp (v, J/mol*K)	Sound Spd. (v, m/s)	Joule-Thomson (v, K/MPa)	Viscosity (v, uPa*s)	Therm. Cond. (v, W/m*K)
200.00	0.020192	0.0015591	1.4619	1.4659	13.060	615.42	0.0016249	1.4331	1.4345	12.904	60.966	93.780	1365.5	-0.49632	286.82	0.14787	0.54171	1.8460	19.903	21.546	113.46	47.975	56.737	208.73	55.461	5.4597	0.0089710
202.00	0.022791	0.0017410	1.6528	1.6573	14.011	613.26	0.0016306	1.6208	1.6225	13.838	61.111	94.064	1352.2	-0.49192	279.27	0.14665	0.60604	1.6500	19.994	21.652	112.99	48.312	57.118	209.50	54.006	5.5132	0.0091300
204.00	0.025655	0.0019391	1.8446	1.8497	14.955	611.10	0.0016364	1.8092	1.8110	14.766	61.261	94.354	1338.9	-0.48740	272.02	0.14542	0.67630	1.4786	20.085	21.758	112.55	48.653	57.505	210.26	52.598	5.5667	0.0092902
206.00	0.028803	0.0021545	2.0372	2.0430	15.895	608.92	0.0016422	1.9981	2.0002	15.687	61.416	94.652	1325.7	-0.48276	265.06	0.14420	0.75286	1.3283	20.177	21.864	112.11	48.998	57.900	210.99	51.234	5.6201	0.0094514
208.00	0.032255	0.0023881	2.2308	2.2372	16.830	606.74	0.0016482	2.1876	2.1899	16.603	61.576	94.957	1312.4	-0.47800	258.36	0.14298	0.83609	1.1960	20.269	21.970	111.70	49.348	58.302	211.71	49.915	5.6734	0.0096137
210.00	0.036032	0.0026409	2.4252	2.4323	17.760	604.55	0.0016541	2.3777	2.3803	17.512	61.741	95.269	1299.2	-0.47310	251.92	0.14176	0.92641	1.0794	20.361	22.076	111.30	49.702	58.713	212.40	48.640	5.7267	0.0097771
212.00	0.040156	0.0029140	2.6205	2.6285	18.686	602.35	0.0016602	2.5684	2.5714	18.416	61.912	95.589	1285.9	-0.46808	245.71	0.14055	1.0242	0.97636	20.454	22.182	110.92	50.060	59.130	213.08	47.407	5.7798	0.0099416
214.00	0.044649	0.0032085	2.8169	2.8257	19.608	600.14	0.0016663	2.7598	2.7631	19.315	62.087	95.917	1272.7	-0.46292	239.72	0.13934	1.1299	0.88501	20.546	22.289	110.56	50.422	59.556	213.74	46.217	5.8329	0.010107
216.00	0.049534	0.0035254	3.0142	3.0240	20.525	597.92	0.0016725	2.9518	2.9555	20.208	62.268	96.252	1259.5	-0.45762	233.96	0.13813	1.2440	0.80386	20.639	22.395	110.21	50.789	59.989	214.37	45.067	5.8859	0.010274
218.00	0.054834	0.0038658	3.2125	3.2233	21.439	595.69	0.0016787	3.1445	3.1485	21.096	62.453	96.596	1246.4	-0.45217	228.39	0.13693	1.3669	0.73160	20.732	22.501	109.87	51.160	60.431	214.98	43.957	5.9389	0.010442
220.00	0.060574	0.0042309	3.4118	3.4238	22.349	593.45	0.0016851	3.3378	3.3423	21.979	62.643	96.948	1233.2	-0.44658	223.01	0.13573	1.4990	0.66712	20.825	22.607	109.55	51.535	60.881	215.57	42.886	5.9917	0.010611
222.00	0.066780	0.0046218	3.6122	3.6255	23.256	591.20	0.0016915	3.5319	3.5368	22.857	62.838	97.307	1220.1	-0.44083	217.82	0.13453	1.6408	0.60945	20.919	22.713	109.24	51.914	61.339	216.14	41.852	6.0445	0.010782
224.00	0.073476	0.0050397	3.8137	3.8283	24.160	588.93	0.0016980	3.7266	3.7321	23.731	63.037	97.676	1206.9	-0.43492	212.80	0.13334	1.7929	0.55777	21.012	22.819	108.94	52.297	61.805	216.68	40.856	6.0973	0.010953
226.00	0.080689	0.0054859	4.0164	4.0324	25.060	586.66	0.0017046	3.9221	3.9281	24.599	63.241	98.053	1193.8	-0.42884	207.94	0.13216	1.9556	0.51136	21.106	22.925	108.66	52.684	62.280	217.20	39.895	6.1500	0.011126
228.00	0.088446	0.0059614	4.2201	4.2377	25.958	584.38	0.0017112	4.1183	4.1250	25.464	63.449	98.438	1180.7	-0.42260	203.24	0.13098	2.1295	0.46959	21.200	23.031	108.39	53.075	62.764	217.69	38.970	6.2027	0.011301
230.00	0.096775	0.0064676	4.4251	4.4443	26.853	582.08	0.0017180	4.3152	4.3226	26.324	63.662	98.833	1167.6	-0.41617	198.68	0.12980	2.3152	0.43193	21.294	23.137	108.13	53.470	63.257	218.16	38.078	6.2554	0.011477
232.00	0.10570	0.0070057	4.6312	4.6522	27.745	579.77	0.0017248	4.5130	4.5210	27.180	63.879	99.236	1154.5	-0.40957	194.27	0.12863	2.5131	0.39792	21.388	23.243	107.88	53.868	63.758	218.61	37.218	6.3080	0.011654
234.00	0.11526	0.0075770	4.8385	4.8614	28.635	577.45	0.0017318	4.7115	4.7203	28.032	64.101	99.649	1141.5	-0.40277	189.99	0.12746	2.7238	0.36714	21.482	23.348	107.64	54.271	64.269	219.03	36.391	6.3606	0.011832
236.00	0.12548	0.0081828	5.0472	5.0721	29.523	575.11	0.0017388	4.9108	4.9204	28.880	64.327	100.07	1128.4	-0.39578	185.83	0.12630	2.9478	0.33923	21.577	23.454	107.41	54.677	64.790	219.42	35.594	6.4132	0.012013
238.00	0.13638	0.0088244	5.2570	5.2841	30.409	572.76	0.0017459	5.1109	5.1214	29.725	64.557	100.50	1115.3	-0.38859	181.80	0.12515	3.1858	0.31389	21.671	23.559	107.19	55.087	65.320	219.79	34.826	6.4658	0.012195
240.00	0.14800	0.0095032	5.4682	5.4976	31.292	570.39	0.0017532	5.3119	5.3233	30.566	64.792	100.94	1102.3	-0.38118	177.88	0.12400	3.4383	0.29084	21.766	23.664	106.98	55.501	65.860	220.12	34.088	6.5185	0.012378
242.00	0.16037	0.010221	5.6807	5.7125	32.174	568.01	0.0017605	5.5136	5.5261	31.404	65.031	101.39	1089.2	-0.37355	174.07	0.12286	3.7059	0.26984	21.860	23.768	106.79	55.919	66.410	220.43	33.377	6.5712	0.012563
244.00	0.17352	0.010978	5.8946	5.9290	33.054	565.62	0.0017680	5.7163	5.7298	32.238	65.274	101.85	1076.2	-0.36569	170.37	0.12173	3.9893	0.25067	21.955	23.873	106.59	56.340	66.971	220.72	32.692	6.6239	0.012750
246.00	0.18748	0.011777	6.1098	6.1470	33.933	563.21	0.0017755	5.9199	5.9345	33.069	65.522	102.33	1063.1	-0.35760	166.77	0.12060	4.2890	0.23315	22.050	23.977	106.41	56.766	67.543	220.97	32.034	6.6768	0.012939
248.00	0.20228	0.012619	6.3264	6.3666	34.810	560.78	0.0017832	6.1243	6.1402	33.897	65.773	102.81	1050.1	-0.34925	163.26	0.11948	4.6058	0.21712	22.144	24.081	106.24	57.195	68.127	221.20	31.401	6.7297	0.013130
250.00	0.21796	0.013505	6.5445	6.5878	35.685	558.34	0.0017910	6.3297	6.3469	34.722	66.030	103.30	1037.0	-0.34065	159.85	0.11837	4.9402	0.20242	22.239	24.184	106.07	57.628	68.722	221.39	30.791	6.7827	0.013323
252.00	0.23455	0.014437	6.7640	6.8106	36.560	555.87	0.0017990	6.5359	6.5546	35.544	66.290	103.81	1024.0	-0.33177	156.52	0.11726	5.2931	0.18892	22.333	24.287	105.91	58.065	69.329	221.55	30.205	6.8359	0.013518
254.00	0.25209	0.015416	6.9850	7.0350	37.433	553.39	0.0018070	6.7432	6.7633	36.364	66.555	104.32	1010.9	-0.32261	153.28	0.11616	5.6651	0.17652	22.428	24.390	105.76	58.505	69.950	221.69	29.642	6.8892	0.013715
256.00	0.27060	0.016445	7.2075	7.2612	38.306	550.90	0.0018152	6.9514	6.9731	37.180	66.824	104.85	997.87	-0.31315	150.11	0.11506	6.0570	0.16510	22.523	24.493	105.62	58.950	70.583	221.79	29.100	6.9427	0.013915
258.00	0.29012	0.017525	7.4315	7.4890	39.177	548.38	0.0018236	7.1606	7.1839	37.995	67.097	105.39	984.80	-0.30337	147.02	0.11397	6.4694	0.15457	22.617	24.594	105.48	59.399	71.231	221.86	28.579	6.9964	0.014117
260.00	0.31068	0.018657	7.6570	7.7187	40.048	545.84	0.0018320	7.3708	7.3959	38.807	67.375	105.94	971.73	-0.29327	144.01	0.11289	6.9033	0.14486	22.711	24.696	105.35	59.852	71.893	221.90	28.078	7.0503	0.014322
262.00	0.33233	0.019843	7.8841	7.9501	40.918	543.28	0.0018407	7.5821	7.6090	39.617	67.657	106.51	958.64	-0.28283	141.06	0.11182	7.3594	0.13588	22.806	24.797	105.22	60.309	72.570	221.90	27.597	7.1046	0.014529
264.00	0.35509	0.021086	8.1129	8.1833	41.788	540.70	0.0018495	7.7943	7.8233	40.424	67.944	107.09	945.54	-0.27202	138.18	0.11075	7.8386	0.12757	22.900	24.897	105.10	60.771	73.264	221.87	27.135	7.1591	0.014739
266.00	0.37900	0.022386	8.3432	8.4184	42.657	538.10	0.0018584	8.0077	8.0388	41.230	68.235	107.69	932.43	-0.26083	135.37	0.10970	8.3417	0.11988	22.994	24.997	104.98	61.237	73.975	221.81	26.691	7.2139	0.014953
268.00	0.40411	0.023747	8.5752	8.6553	43.526	535.47	0.0018675	8.2222	8.2554	42.034	68.530	108.29	919.31	-0.24924	132.62	0.10864	8.8697	0.11274	23.087	25.096	104.87	61.708	74.703	221.71	26.265	7.2691	0.015169
270.00	0.43043	0.025169	8.8088	8.8942	44.395	532.82	0.0018768	8.4377	8.4733	42.836	68.830	108.92	906.18	-0.23723	129.93	0.10760	9.4235	0.10612	23.181	25.195	104.77	62.184	75.451	221.58	25.856	7.3247	0.015389
272.00	0.45801	0.026656	9.0441	9.1350	45.263	530.14	0.0018863	8.6544	8.6925	43.636	69.134	109.56	893.04	-0.22476	127.29	0.10656	10.004	0.099959	23.274	25.293	104.67	62.664	76.219	221.41	25.463	7.3808	0.015612
274.00	0.48689	0.028208	9.2812	9.3778	46.131	527.44	0.0018959	8.8723	8.9130	44.435	69.442	110.22	879.88	-0.21182	124.71	0.10554	10.613	0.094228	23.367	25.390	104.57	63.150	77.008	221.20	25.086	7.4373	0.015839
276.00	0.51711	0.029829	9.5199	9.6226	47.000	524.71	0.0019058	9.0913	9.1348	45.232	69.755	110.89	866.70	-0.19838	122.18	0.10451	11.250	0.088889	23.460	25.487	104.48	63.641	77.819	220.96	24.724	7.4945	0.016070
278.00	0.54869	0.031521	9.7605	9.8694	47.868	521.96	0.0019159	9.3116	9.3579	46.028	70.072	111.59	853.50	-0.18439	119.71	0.10350	11.917	0.083911	23.552	25.583	104.39	64.137	78.655	220.68	24.378	7.5522	0.016305
280.00	0.58168	0.033286	10.003	10.118	48.736	519.17	0.0019261	9.5331	9.5825	46.823	70.393	112.30	840.29	-0.16985	117.28	0.10250	12.616	0.079264	23.645	25.678	104.31	64.639	79.516	220.36	24.045	7.6105	0.016544
282.00	0.61613	0.035127	10.247	10.369	49.605	516.36	0.0019366	9.7558	9.8084	47.617	70.719	113.04	827.06	-0.15469	114.90	0.10150	13.347	0.074923	23.736	25.772	104.22	65.147	80.404	220.00	23.727	7.6696	0.016788
284.00	0.65205	0.037047	10.493	10.622	50.474	513.51	0.0019474	9.9799	10.036	48.409	71.049	113.79	813.81	-0.13889	112.56	0.10051	14.112	0.070862	23.828	25.865	104.15	65.660	81.322	219.59	23.422	7.7294	0.017037
286.00	0.68951	0.039048	10.741	10.878	51.344	510.64	0.0019583	10.205	10.265	49.201	71.384	114.57	800.53	-0.12240	110.26	0.099524	14.912	0.067060	23.918	25.957	104.07	66.180	82.270	219.15	23.129	7.7901	0.017291
288.00	0.72852	0.041134	10.990	11.135	52.214	507.72	0.0019696	10.432	10.495	49.993	71.722	115.38	787.23	-0.10517	108.01	0.098548	15.749	0.063498	24.009	26.049	104.00	66.707	83.252	218.67	22.850	7.8516	0.017550
290.00	0.76914	0.043307	11.242	11.395	53.085	504.78	0.0019811	10.660	10.727	50.783	72.066	116.21	773.90	-0.087160	105.80	0.097581	16.623	0.060156	24.099	26.139	103.93	67.240	84.269	218.14	22.583	7.9142	0.017815
292.00	0.81140	0.045570	11.496	11.657	53.956	501.79	0.0019929	10.890	10.961	51.573	72.413	117.06	760.55	-0.068299	103.62	0.096621	17.538	0.057020	24.188	26.228	103.86	67.781	85.324	217.57	22.327	7.9779	0.018086
294.00	0.85534	0.047929	11.751	11.921	54.828	498.77	0.0020049	11.121	11.196	52.363	72.766	117.95	747.16	-0.048529	101.48	0.095669	18.494	0.054072	24.277	26.316	103.79	68.328	86.420	216.95	22.083	8.0427	0.018364
296.00	0.90101	0.050385	12.009	12.187	55.701	495.70	0.0020173	11.353	11.433	53.153	73.122	118.87	733.75	-0.027780	99.380	0.094725	19.493	0.051300	24.365	26.403	103.73	68.883	87.561	216.29	21.850	8.1087	0.018648
298.00	0.94844	0.052943	12.268	12.456	56.575	492.60	0.0020301	11.587	11.672	53.943	73.484	119.82	720.29	-0.0059763	97.311	0.093788	20.538	0.048691	24.452	26.488	103.66	69.446	88.749	215.58	21.628	8.1762	0.018940
300.00	0.99768	0.055608	12.530	12.728	57.450	489.45	0.0020431	11.823	11.913	54.733	73.850	120.80	706.81	0.016968	95.274	0.092858	21.630	0.046233	24.538	26.572	103.60	70.016	89.989	214.82	21.416	8.2451	0.019239
302.00	1.0488	0.058384	12.793	13.002	58.326	486.25	0.0020566	12.060	12.155	55.523	74.220	121.83	693.28	0.041146	93.269	0.091936	22.771	0.043916	24.624	26.655	103.53	70.595	91.285	214.02	21.215	8.3156	0.019546
304.00	1.1017	0.061276	13.059	13.278	59.203	483.01	0.0020704	12.299	12.399	56.313	74.596	122.90	679.70	0.066664	91.293	0.091021	23.964	0.041728	24.709	26.736	103.47	71.183	92.641	213.16	21.024	8.3879	0.019862
306.00	1.1566	0.064288	13.327	13.557	60.081	479.71	0.0020846	12.539	12.646	57.105	74.977	124.01	666.09	0.093638	89.346	0.090113	25.212	0.039663	24.792	26.815	103.41	71.779	94.065	212.26	20.842	8.4620	0.020188
308.00	1.2135	0.067428	13.597	13.838	60.961	476.36	0.0020993	12.782	12.894	57.897	75.363	125.18	652.42	0.12220	87.426	0.089213	26.518	0.037711	24.875	26.893	103.35	72.385	95.560	211.30	20.670	8.5382	0.020523
310.00	1.2724	0.070700	13.870	14.122	61.843	472.95	0.0021144	13.026	13.145	58.690	75.754	126.40	638.69	0.15249	85.533	0.088319	27.883	0.035864	24.956	26.969	103.28	73.000	97.136	210.28	20.508	8.6166	0.020869
312.00	1.3334	0.074111	14.144	14.409	62.725	469.48	0.0021300	13.272	13.398	59.484	76.151	127.68	624.91	0.18469	83.664	0.087432	29.313	0.034115	25.037	27.043	103.22	73.625	98.799	209.21	20.354	8.6974	0.021227
314.00	1.3965	0.077670	14.421	14.698	63.610	465.95	0.0021461	13.520	13.653	60.280	76.554	129.02	611.07	0.21897	81.818	0.086552	30.809	0.032458	25.116	27.114	103.15	74.261	100.56	208.09	20.210	8.7808	0.021597
316.00	1.4617	0.081382	14.700	14.990	64.496	462.35	0.0021628	13.771	13.910	61.078	76.963	130.44	597.16	0.25555	79.995	0.085678	32.377	0.030887	25.193	27.184	103.08	74.908	102.43	206.91	20.075	8.8671	0.021981
318.00	1.5292	0.085258	14.982	15.285	65.384	458.68	0.0021802	14.023	14.170	61.877	77.379	131.93	583.18	0.29466	78.193	0.084810	34.019	0.029395	25.269	27.251	103.01	75.566	104.41	205.66	19.948	8.9565	0.022378
320.00	1.5989	0.089306	15.266	15.583	66.275	454.94	0.0021981	14.277	14.432	62.679	77.802	133.52	569.12	0.33660	76.410	0.083948	35.742	0.027978	25.343	27.316	102.94	76.237	106.53	204.35	19.830	9.0492	0.022792
322.00	1.6708	0.093538	15.552	15.884	67.167	451.11	0.0022168	14.534	14.698	63.483	78.232	135.20	554.97	0.38166	74.646	0.083092	37.550	0.026631	25.416	27.378	102.86	76.920	108.80	202.98	19.720	9.1457	0.023223
324.00	1.7452	0.097963	15.841	16.187	68.062	447.19	0.0022362	14.794	14.966	64.291	78.670	137.00	540.74	0.43022	72.899	0.082241	39.448	0.025350	25.486	27.437	102.78	77.616	111.24	201.55	19.619	9.2462	0.023672
326.00	1.8219	0.10260	16.133	16.494	68.959	443.18	0.0022564	15.056	15.237	65.101	79.116	138.93	526.40	0.48271	71.167	0.081395	41.444	0.024129	25.555	27.493	102.70	78.324	113.87	200.04	19.527	9.3511	0.024143
328.00	1.9011	0.10745	16.427	16.804	69.859	439.08	0.0022775	15.320	15.511	65.916	79.572	141.00	511.96	0.53962	69.450	0.080554	43.544	0.022965	25.621	27.546	102.61	79.044	116.71	198.47	19.443	9.4610	0.024636
330.00	1.9828	0.11255	16.724	17.117	70.761	434.86	0.0022996	15.588	15.789	66.735	80.038	143.24	497.40	0.60152	67.744	0.079717	45.757	0.021855	25.684	27.595	102.51	79.776	119.81	196.82	19.369	9.5763	0.025154
332.00	2.0671	0.11790	17.024	17.434	71.667	430.52	0.0023228	15.858	16.070	67.558	80.515	145.67	482.72	0.66912	66.050	0.078884	48.091	0.020794	25.745	27.640	102.41	80.521	123.20	195.10	19.304	9.6976	0.025700
334.00	2.1540	0.12353	17.326	17.754	72.576	426.06	0.0023471	16.132	16.355	68.387	81.004	148.33	467.90	0.74323	64.364	0.078055	50.558	0.019779	25.802	27.681	102.30	81.280	126.93	193.30	19.249	9.8255	0.026279
336.00	2.2436	0.12946	17.632	18.077	73.488	421.46	0.0023727	16.409	16.644	69.222	81.506	151.24	452.93	0.82485	62.684	0.077229	53.169	0.018808	25.856	27.716	102.18	82.057	131.07	191.43	19.203	9.9610	0.026893
338.00	2.3359	0.13572	17.941	18.404	74.404	416.70	0.0023998	16.690	16.937	70.063	82.024	154.47	437.79	0.91517	61.009	0.076405	55.937	0.017877	25.905	27.747	102.04	82.857	135.72	189.47	19.166	10.105	0.027549
340.00	2.4310	0.14235	18.253	18.735	75.324	411.77	0.0024285	16.975	17.235	70.913	82.558	158.07	422.46	1.0157	59.336	0.075584	58.880	0.016984	25.951	27.771	101.90	83.689	140.98	187.44	19.136	10.258	0.028252
342.00	2.5291	0.14938	18.568	19.070	76.249	406.66	0.0024591	17.264	17.539	71.772	83.112	162.12	406.93	1.1282	57.661	0.074764	62.017	0.016125	25.991	27.790	101.75	84.562	147.00	185.31	19.111	10.422	0.029011
344.00	2.6300	0.15686	18.887	19.409	77.178	401.33	0.0024917	17.559	17.848	72.640	83.689	166.73	391.16	1.2549	55.982	0.073947	65.369	0.015298	26.026	27.800	101.57	85.487	153.96	183.10	19.089	10.599	0.029835
346.00	2.7340	0.16484	19.209	19.752	78.113	395.76	0.0025268	17.858	18.163	73.521	84.294	172.03	375.11	1.3989	54.294	0.073131	68.965	0.014500	26.055	27.803	101.38	86.476	162.11	180.78	19.068	10.789	0.030738
348.00	2.8411	0.17339	19.536	20.099	79.054	389.92	0.0025646	18.164	18.485	74.415	84.933	178.21	358.76	1.5637	52.592	0.072317	72.837	0.013729	26.076	27.796	101.17	87.541	171.79	178.36	19.045	10.996	0.031734
350.00	2.9514	0.18259	19.866	20.452	80.001	383.77	0.0026058	18.476	18.815	75.325	85.617	185.54	342.06	1.7543	50.870	0.071507	77.028	0.012982	26.089	27.778	100.93	88.692	183.45	175.83	19.016	11.223	0.032846
352.00	3.0650	0.19255	20.201	20.810	80.955	377.24	0.0026508	18.797	19.155	76.255	86.357	194.39	324.94	1.9771	49.121	0.070704	81.589	0.012257	26.091	27.748	100.67	89.942	197.76	173.18	18.976	11.474	0.034102
354.00	3.1820	0.20341	20.541	21.173	81.918	370.27	0.0027007	19.126	19.505	77.208	87.170	205.36	307.36	2.2409	47.336	0.069912	86.591	0.011549	26.083	27.703	100.37	91.301	215.70	170.39	18.922	11.753	0.035542
356.00	3.3025	0.21534	20.886	21.542	82.890	362.77	0.0027566	19.466	19.868	78.189	88.082	219.35	289.24	2.5583	45.501	0.069144	92.125	0.010855	26.060	27.641	100.02	92.786	238.85	167.47	18.845	12.068	0.037221
358.00	3.4266	0.22861	21.237	21.917	83.874	354.61	0.0028200	19.820	20.246	79.206	89.127	237.92	270.49	2.9473	43.601	0.068420	98.322	0.010171	26.019	27.556	99.625	94.421	269.86	164.38	18.736	12.428	0.039224
360.00	3.5545	0.24358	21.595	22.301	84.871	345.58	0.0028937	20.191	20.645	80.271	90.358	263.88	250.99	3.4351	41.609	0.067783	105.37	0.0094903	25.956	27.443	99.157	96.243	313.56	161.12	18.581	12.849	0.041687
362.00	3.6864	0.26083	21.961	22.693	85.884	335.40	0.0029815	20.585	21.069	81.399	91.863	303.00	230.58	4.0656	39.487	0.067330	113.57	0.0088051	25.862	27.293	98.593	98.318	379.78	157.65	18.352	13.356	0.044845
364.00	3.8224	0.28136	22.337	23.095	86.919	323.54	0.0030909	21.011	21.532	82.623	93.801	369.18	209.01	4.9140	37.168	0.067296	123.45	0.0081007	25.723	27.089	97.890	100.77	491.96	153.89	18.007	13.991	0.049164
366.00	3.9629	0.30721	22.726	23.512	87.984	308.91	0.0032372	21.490	22.056	84.005	96.517	506.34	185.86	6.1255	34.528	0.068355	136.07	0.0073493	25.512	26.796	96.958	103.87	722.86	149.70	17.459	14.853	0.055772
368.00	4.1083	0.34386	23.136	23.951	89.102	288.51	0.0034661	22.081	22.708	85.725	101.03	960.63	160.18	8.0443	31.328	0.073051	154.46	0.0064741	25.150	26.323	95.546	108.36	1463.7	144.54	16.484	16.295	0.068804
370.00	4.2597	undefined	23.608	24.453	90.382	222.20	0.0045005	23.608	24.453	90.382	undefined	undefined	undefined	undefined	25.676	undefined	222.20	0.0045005	23.608	24.453	90.382	undefined	undefined	undefined	undefined	25.676	undefined
372.00	4.4164	undefined	23.836	24.712	90.996	222.20	0.0045005	23.836	24.712	90.996	110.95	3315.1	138.35	12.237	23.401	0.087508	222.20	0.0045005	23.836	24.712	90.996	110.95	3315.1	138.35	12.237	23.401	0.087508
374.00	4.5741	undefined	24.053	24.961	91.579	222.20	0.0045005	24.053	24.961	91.579	106.69	1653.3	144.63	11.713	22.829	0.076286	222.20	0.0045005	24.053	24.961	91.579	106.69	1653.3	144.63	11.713	22.829	0.076286
376.00	4.7326	undefined	24.264	25.203	92.139	222.20	0.0045005	24.264	25.203	92.139	103.80	1098.9	150.14	11.220	22.711	0.070689	222.20	0.0045005	24.264	25.203	92.139	103.80	1098.9	150.14	11.220	22.711	0.070689
378.00	4.8917	undefined	24.469	25.440	92.685	222.20	0.0045005	24.469	25.440	92.685	101.83	827.19	155.06	10.756	22.719	0.067201	222.20	0.0045005	24.469	25.440	92.685	101.83	827.19	155.06	10.756	22.719	0.067201
380.00	5.0515	undefined	24.671	25.674	93.218	222.20	0.0045005	24.671	25.674	93.218	100.47	667.90	159.55	10.321	22.763	0.064806	222.20	0.0045005	24.671	25.674	93.218	100.47	667.90	159.55	10.321	22.763	0.064806
382.00	5.2118	undefined	24.871	25.905	93.743	222.20	0.0045005	24.871	25.905	93.743	99.518	564.04	163.73	9.9106	22.819	0.063066	222.20	0.0045005	24.871	25.905	93.743	99.518	564.04	163.73	9.9106	22.819	0.063066
384.00	5.3725	undefined	25.070	26.136	94.261	222.20	0.0045005	25.070	26.136	94.261	98.824	491.34	167.70	9.5249	22.880	0.061756	222.20	0.0045005	25.070	26.136	94.261	98.824	491.34	167.70	9.5249	22.880	0.061756
386.00	5.5336	undefined	25.267	26.365	94.773	222.20	0.0045005	25.267	26.365	94.773	98.308	437.78	171.50	9.1619	22.942	0.060746	222.20	0.0045005	25.267	26.365	94.773	98.308	437.78	171.50	9.1619	22.942	0.060746
388.00	5.6951	undefined	25.463	26.593	95.280	222.20	0.0045005	25.463	26.593	95.280	97.916	396.79	175.18	8.8200	23.005	0.059958	222.20	0.0045005	25.463	26.593	95.280	97.916	396.79	175.18	8.8200	23.005	0.059958
390.00	5.8569	undefined	25.658	26.821	95.782	222.20	0.0045005	25.658	26.821	95.782	97.617	364.46	178.75	8.4978	23.068	0.059336	222.20	0.0045005	25.658	26.821	95.782	97.617	364.46	178.75	8.4978	23.068	0.059336
392.00	6.0189	undefined	25.853	27.048	96.281	222.20	0.0045005	25.853	27.048	96.281	97.390	338.35	182.23	8.1936	23.132	0.058845	222.20	0.0045005	25.853	27.048	96.281	97.390	338.35	182.23	8.1936	23.132	0.058845
394.00	6.1813	undefined	26.048	27.275	96.776	222.20	0.0045005	26.048	27.275	96.776	97.222	316.86	185.64	7.9062	23.195	0.058456	222.20	0.0045005	26.048	27.275	96.776	97.222	316.86	185.64	7.9062	23.195	0.058456
396.00	6.3439	undefined	26.242	27.501	97.268	222.20	0.0045005	26.242	27.501	97.268	97.104	298.88	188.97	7.6343	23.259	0.058152	222.20	0.0045005	26.242	27.501	97.268	97.104	298.88	188.97	7.6343	23.259	0.058152
398.00	6.5067	undefined	26.436	27.728	97.757	222.20	0.0045005	26.436	27.728	97.757	97.028	283.64	192.23	7.3767	23.322	0.057916	222.20	0.0045005	26.436	27.728	97.757	97.028	283.64	192.23	7.3767	23.322	0.057916
400.00	6.6697	undefined	26.630	27.954	98.243	222.20	0.0045005	26.630	27.954	98.243	96.990	270.57	195.43	7.1323	23.385	0.057737	222.20	0.0045005	26.630	27.954	98.243	96.990	270.57	195.43	7.1323	23.385	0.057737


