#Temperature (K)	Pressure (MPa)	Density (l, kg/m3)	Volume (l, m3/kg)	Internal Energy (l, kJ/mol)	Enthalpy (l, kJ/mol)	Entropy (l, J/mol*K)	Cv (l, J/mol*K)	Cp (l, J/mol*K)	Sound Spd. (l, m/s)	Joule-Thomson (l, K/MPa)	Viscosity (l, uPa*s)	Therm. Cond. (l, W/m*K)	Surf. Tension (l, N/m)	Density (v, kg/m3)	Volume (v, m3/kg)	Internal Energy (v, kJ/mol)	Enthalpy (v, kJ/mol)	Entropy (v, J/mol*K)	Cv (v, J/mol*K)	Cp (v, J/mol*K)	Sound Spd. (v, m/s)	Joule-Thomson (v, K/MPa)	Viscosity (v, uPa*s)	Therm. Cond. (v, W/m*K)
91.000	0.012164	451.07	0.0022170	-1.1361	-1.1357	-11.208	34.744	54.045	1535.8	-0.48126	191.76	0.21083	0.017002	0.25996	3.8468	6.8382	7.5889	84.667	25.250	33.866	249.51	47.514	3.6080	0.0088333
91.500	0.012962	450.40	0.0022202	-1.1091	-1.1086	-10.911	34.692	54.073	1531.3	-0.48016	188.90	0.21023	0.016903	0.27560	3.6285	6.8501	7.6046	84.315	25.261	33.890	250.14	46.863	3.6247	0.0088904
92.000	0.013801	449.74	0.0022235	-1.0820	-1.0815	-10.617	34.641	54.102	1526.7	-0.47905	186.13	0.20964	0.016804	0.29197	3.4250	6.8619	7.6202	83.967	25.272	33.916	250.76	46.227	3.6414	0.0089478
92.500	0.014685	449.07	0.0022268	-1.0550	-1.0545	-10.324	34.591	54.131	1522.2	-0.47791	183.44	0.20903	0.016704	0.30910	3.2352	6.8736	7.6358	83.625	25.284	33.942	251.37	45.607	3.6581	0.0090054
93.000	0.015613	448.40	0.0022302	-1.0279	-1.0274	-10.032	34.542	54.162	1517.6	-0.47675	180.84	0.20843	0.016605	0.32702	3.0579	6.8854	7.6513	83.288	25.296	33.969	251.99	45.000	3.6749	0.0090633
93.500	0.016589	447.73	0.0022335	-1.0008	-1.0002	-9.7413	34.493	54.194	1513.0	-0.47557	178.32	0.20782	0.016506	0.34574	2.8923	6.8971	7.6668	82.955	25.308	33.996	252.60	44.409	3.6918	0.0091214
94.000	0.017613	447.05	0.0022369	-0.97375	-0.97311	-9.4523	34.445	54.226	1508.4	-0.47436	175.87	0.20720	0.016406	0.36530	2.7375	6.9088	7.6823	82.627	25.320	34.025	253.20	43.831	3.7087	0.0091797
94.500	0.018688	446.38	0.0022402	-0.94664	-0.94596	-9.1647	34.397	54.260	1503.7	-0.47313	173.49	0.20658	0.016307	0.38572	2.5926	6.9205	7.6977	82.303	25.333	34.054	253.80	43.266	3.7256	0.0092382
95.000	0.019815	445.71	0.0022436	-0.91951	-0.91880	-8.8784	34.350	54.294	1499.1	-0.47188	171.18	0.20596	0.016208	0.40702	2.4569	6.9321	7.7131	81.984	25.345	34.084	254.39	42.714	3.7425	0.0092970
95.500	0.020996	445.03	0.0022470	-0.89237	-0.89161	-8.5934	34.304	54.330	1494.5	-0.47060	168.92	0.20534	0.016109	0.42923	2.3297	6.9437	7.7285	81.669	25.358	34.114	254.98	42.174	3.7595	0.0093561
96.000	0.022233	444.35	0.0022505	-0.86521	-0.86441	-8.3097	34.258	54.366	1489.8	-0.46931	166.73	0.20471	0.016010	0.45238	2.2105	6.9553	7.7438	81.359	25.372	34.145	255.57	41.647	3.7765	0.0094154
96.500	0.023528	443.67	0.0022539	-0.83803	-0.83718	-8.0274	34.213	54.402	1485.1	-0.46799	164.59	0.20407	0.015910	0.47649	2.0987	6.9669	7.7590	81.052	25.385	34.178	256.15	41.132	3.7936	0.0094749
97.000	0.024882	442.99	0.0022574	-0.81084	-0.80994	-7.7463	34.168	54.440	1480.4	-0.46664	162.51	0.20344	0.015811	0.50159	1.9937	6.9784	7.7742	80.750	25.399	34.211	256.73	40.628	3.8107	0.0095347
97.500	0.026298	442.31	0.0022608	-0.78362	-0.78267	-7.4664	34.124	54.478	1475.7	-0.46528	160.47	0.20280	0.015712	0.52771	1.8950	6.9899	7.7894	80.452	25.413	34.244	257.30	40.135	3.8278	0.0095948
98.000	0.027778	441.63	0.0022643	-0.75639	-0.75538	-7.1878	34.080	54.517	1471.0	-0.46389	158.48	0.20216	0.015613	0.55488	1.8022	7.0013	7.8045	80.158	25.427	34.279	257.87	39.653	3.8449	0.0096551
98.500	0.029324	440.95	0.0022679	-0.72914	-0.72808	-6.9105	34.036	54.557	1466.3	-0.46248	156.54	0.20151	0.015514	0.58312	1.7149	7.0128	7.8195	79.867	25.442	34.314	258.43	39.181	3.8621	0.0097156
99.000	0.030937	440.26	0.0022714	-0.70187	-0.70075	-6.6343	33.993	54.598	1461.5	-0.46105	154.64	0.20086	0.015415	0.61246	1.6328	7.0242	7.8345	79.581	25.456	34.350	258.99	38.720	3.8793	0.0097764
99.500	0.032621	439.57	0.0022749	-0.67459	-0.67340	-6.3593	33.950	54.639	1456.8	-0.45960	152.78	0.20021	0.015316	0.64293	1.5554	7.0355	7.8495	79.298	25.471	34.387	259.54	38.268	3.8966	0.0098375
100.00	0.034376	438.89	0.0022785	-0.64728	-0.64602	-6.0856	33.908	54.681	1452.0	-0.45812	150.97	0.19956	0.015217	0.67457	1.4824	7.0469	7.8644	79.019	25.487	34.425	260.09	37.826	3.9139	0.0098989
100.50	0.036205	438.20	0.0022821	-0.61995	-0.61862	-5.8129	33.866	54.723	1447.3	-0.45662	149.19	0.19890	0.015118	0.70739	1.4136	7.0582	7.8793	78.743	25.502	34.464	260.64	37.394	3.9312	0.0099605
101.00	0.038111	437.50	0.0022857	-0.59260	-0.59120	-5.5415	33.824	54.766	1442.5	-0.45509	147.44	0.19824	0.015019	0.74143	1.3487	7.0694	7.8941	78.471	25.518	34.504	261.18	36.970	3.9485	0.010022
101.50	0.040095	436.81	0.0022893	-0.56523	-0.56376	-5.2712	33.783	54.810	1437.7	-0.45354	145.73	0.19758	0.014920	0.77672	1.2875	7.0807	7.9088	78.202	25.534	34.544	261.71	36.556	3.9658	0.010085
102.00	0.042160	436.12	0.0022930	-0.53784	-0.53629	-5.0020	33.741	54.854	1432.9	-0.45197	144.06	0.19692	0.014821	0.81329	1.2296	7.0918	7.9235	77.937	25.550	34.585	262.24	36.150	3.9832	0.010147
102.50	0.044309	435.42	0.0022966	-0.51043	-0.50880	-4.7339	33.700	54.900	1428.1	-0.45038	142.41	0.19625	0.014722	0.85117	1.1749	7.1030	7.9381	77.675	25.566	34.628	262.76	35.752	4.0006	0.010210
103.00	0.046542	434.72	0.0023003	-0.48300	-0.48129	-4.4669	33.660	54.945	1423.3	-0.44875	140.80	0.19558	0.014624	0.89039	1.1231	7.1141	7.9527	77.416	25.583	34.671	263.28	35.363	4.0181	0.010273
103.50	0.048863	434.02	0.0023040	-0.45555	-0.45374	-4.2009	33.619	54.992	1418.4	-0.44711	139.22	0.19491	0.014525	0.93098	1.0741	7.1252	7.9672	77.161	25.600	34.715	263.80	34.982	4.0355	0.010336
104.00	0.051275	433.32	0.0023078	-0.42808	-0.42618	-3.9361	33.579	55.039	1413.6	-0.44544	137.66	0.19424	0.014426	0.97298	1.0278	7.1362	7.9817	76.908	25.617	34.760	264.31	34.608	4.0530	0.010400
104.50	0.053778	432.62	0.0023115	-0.40058	-0.39859	-3.6723	33.539	55.087	1408.7	-0.44374	136.14	0.19356	0.014328	1.0164	0.98386	7.1472	7.9961	76.659	25.635	34.806	264.81	34.242	4.0705	0.010464
105.00	0.056377	431.92	0.0023153	-0.37306	-0.37097	-3.4096	33.500	55.135	1403.9	-0.44202	134.64	0.19289	0.014229	1.0613	0.94224	7.1582	8.0104	76.413	25.652	34.853	265.31	33.883	4.0881	0.010528
105.50	0.059073	431.21	0.0023191	-0.34552	-0.34332	-3.1479	33.460	55.184	1399.0	-0.44027	133.16	0.19221	0.014130	1.1077	0.90277	7.1691	8.0247	76.169	25.670	34.901	265.80	33.532	4.1056	0.010592
106.00	0.061868	430.50	0.0023229	-0.31795	-0.31565	-2.8872	33.421	55.234	1394.1	-0.43850	131.71	0.19153	0.014032	1.1556	0.86533	7.1800	8.0389	75.929	25.688	34.950	266.29	33.187	4.1232	0.010657
106.50	0.064766	429.79	0.0023267	-0.29037	-0.28795	-2.6275	33.382	55.284	1389.2	-0.43669	130.28	0.19084	0.013934	1.2051	0.82980	7.1908	8.0530	75.691	25.707	35.000	266.78	32.849	4.1408	0.010722
107.00	0.067769	429.08	0.0023306	-0.26276	-0.26022	-2.3688	33.343	55.335	1384.3	-0.43486	128.88	0.19016	0.013835	1.2562	0.79605	7.2016	8.0671	75.456	25.725	35.051	267.26	32.518	4.1584	0.010788
107.50	0.070879	428.37	0.0023344	-0.23512	-0.23247	-2.1111	33.305	55.387	1379.4	-0.43301	127.50	0.18947	0.013737	1.3089	0.76398	7.2124	8.0811	75.224	25.744	35.103	267.73	32.194	4.1761	0.010854
108.00	0.074099	427.65	0.0023383	-0.20746	-0.20468	-1.8544	33.266	55.439	1374.5	-0.43112	126.14	0.18879	0.013639	1.3633	0.73351	7.2231	8.0950	74.995	25.763	35.156	268.20	31.875	4.1938	0.010920
108.50	0.077431	426.94	0.0023423	-0.17978	-0.17687	-1.5986	33.228	55.493	1369.6	-0.42921	124.80	0.18810	0.013541	1.4194	0.70452	7.2337	8.1089	74.768	25.783	35.210	268.66	31.563	4.2115	0.010986
109.00	0.080879	426.22	0.0023462	-0.15207	-0.14903	-1.3438	33.190	55.546	1364.6	-0.42726	123.48	0.18741	0.013443	1.4772	0.67694	7.2444	8.1227	74.544	25.802	35.265	269.12	31.257	4.2292	0.011053
109.50	0.084444	425.50	0.0023502	-0.12434	-0.12116	-1.0899	33.152	55.601	1359.7	-0.42529	122.18	0.18672	0.013345	1.5368	0.65070	7.2549	8.1364	74.322	25.822	35.321	269.57	30.957	4.2469	0.011120
110.00	0.088130	424.78	0.0023542	-0.096585	-0.093257	-0.83691	33.115	55.656	1354.7	-0.42328	120.90	0.18602	0.013247	1.5982	0.62570	7.2654	8.1501	74.103	25.842	35.378	270.01	30.662	4.2647	0.011188
110.50	0.091939	424.05	0.0023582	-0.068803	-0.065325	-0.58487	33.077	55.712	1349.7	-0.42125	119.64	0.18533	0.013149	1.6614	0.60189	7.2759	8.1637	73.886	25.862	35.437	270.46	30.373	4.2825	0.011255
111.00	0.095874	423.33	0.0023622	-0.040996	-0.037362	-0.33373	33.040	55.769	1344.8	-0.41918	118.40	0.18463	0.013051	1.7266	0.57919	7.2864	8.1772	73.671	25.883	35.496	270.89	30.090	4.3003	0.011323
111.50	0.099937	422.60	0.0023663	-0.013162	-0.0093685	-0.083487	33.003	55.827	1339.8	-0.41709	117.17	0.18394	0.012953	1.7936	0.55755	7.2967	8.1906	73.459	25.904	35.557	271.32	29.812	4.3181	0.011392
112.00	0.10413	421.87	0.0023704	0.014697	0.018657	0.16587	32.966	55.885	1334.8	-0.41495	115.97	0.18324	0.012856	1.8625	0.53690	7.3071	8.2040	73.249	25.925	35.619	271.75	29.539	4.3360	0.011461
112.50	0.10846	421.14	0.0023745	0.042583	0.046715	0.41436	32.929	55.944	1329.8	-0.41279	114.78	0.18254	0.012758	1.9335	0.51720	7.3174	8.2173	73.042	25.946	35.682	272.16	29.271	4.3539	0.011530
113.00	0.11293	420.40	0.0023787	0.070495	0.074805	0.66199	32.893	56.004	1324.7	-0.41059	113.60	0.18184	0.012660	2.0065	0.49839	7.3276	8.2305	72.836	25.968	35.747	272.58	29.008	4.3718	0.011600
113.50	0.11753	419.67	0.0023828	0.098435	0.10293	0.90876	32.857	56.065	1319.7	-0.40836	112.44	0.18114	0.012563	2.0815	0.48043	7.3378	8.2436	72.633	25.989	35.812	272.99	28.750	4.3897	0.011670
114.00	0.12228	418.93	0.0023870	0.12640	0.13108	1.1547	32.820	56.127	1314.7	-0.40609	111.30	0.18044	0.012466	2.1586	0.46326	7.3479	8.2567	72.432	26.011	35.879	273.39	28.497	4.4077	0.011740
114.50	0.12717	418.19	0.0023913	0.15440	0.15927	1.3998	32.784	56.190	1309.6	-0.40379	110.17	0.17973	0.012368	2.2379	0.44685	7.3580	8.2697	72.233	26.034	35.947	273.78	28.248	4.4256	0.011811
115.00	0.13221	417.45	0.0023955	0.18242	0.18750	1.6441	32.749	56.253	1304.6	-0.40145	109.06	0.17903	0.012271	2.3193	0.43116	7.3680	8.2825	72.036	26.056	36.016	274.17	28.004	4.4436	0.011882
115.50	0.13741	416.70	0.0023998	0.21047	0.21576	1.8875	32.713	56.317	1299.5	-0.39908	107.96	0.17833	0.012174	2.4030	0.41615	7.3780	8.2953	71.841	26.079	36.087	274.56	27.765	4.4616	0.011954
116.00	0.14275	415.96	0.0024041	0.23855	0.24405	2.1302	32.677	56.383	1294.4	-0.39666	106.88	0.17762	0.012077	2.4888	0.40179	7.3879	8.3081	71.648	26.102	36.159	274.94	27.529	4.4797	0.012026
116.50	0.14826	415.21	0.0024084	0.26666	0.27238	2.3721	32.642	56.449	1289.4	-0.39421	105.81	0.17691	0.011980	2.5770	0.38804	7.3978	8.3207	71.456	26.125	36.232	275.31	27.298	4.4978	0.012098
117.00	0.15392	414.46	0.0024128	0.29479	0.30075	2.6132	32.607	56.516	1284.3	-0.39172	104.75	0.17621	0.011884	2.6675	0.37488	7.4076	8.3333	71.267	26.148	36.307	275.68	27.071	4.5159	0.012171
117.50	0.15975	413.70	0.0024172	0.32296	0.32916	2.8535	32.572	56.584	1279.2	-0.38918	103.71	0.17550	0.011787	2.7604	0.36226	7.4173	8.3457	71.080	26.172	36.383	276.04	26.848	4.5340	0.012244
118.00	0.16574	412.95	0.0024216	0.35116	0.35760	3.0931	32.537	56.653	1274.0	-0.38661	102.68	0.17479	0.011690	2.8557	0.35017	7.4270	8.3581	70.894	26.196	36.461	276.40	26.629	4.5521	0.012318
118.50	0.17190	412.19	0.0024261	0.37938	0.38607	3.3319	32.502	56.724	1268.9	-0.38400	101.66	0.17408	0.011594	2.9535	0.33858	7.4366	8.3704	70.710	26.220	36.540	276.75	26.413	4.5703	0.012392
119.00	0.17824	411.43	0.0024305	0.40764	0.41459	3.5700	32.468	56.795	1263.8	-0.38134	100.65	0.17337	0.011497	3.0537	0.32747	7.4462	8.3826	70.528	26.245	36.620	277.09	26.202	4.5885	0.012466
119.50	0.18474	410.67	0.0024351	0.43593	0.44315	3.8073	32.434	56.867	1258.6	-0.37864	99.660	0.17266	0.011401	3.1565	0.31681	7.4557	8.3947	70.347	26.270	36.703	277.43	25.994	4.6067	0.012541
120.00	0.19143	409.90	0.0024396	0.46425	0.47174	4.0439	32.400	56.941	1253.5	-0.37589	98.680	0.17195	0.011305	3.2619	0.30657	7.4652	8.4067	70.168	26.295	36.786	277.76	25.790	4.6250	0.012617
120.50	0.19830	409.13	0.0024442	0.49260	0.50038	4.2798	32.366	57.015	1248.3	-0.37310	97.711	0.17124	0.011209	3.3698	0.29675	7.4746	8.4186	69.991	26.320	36.871	278.09	25.589	4.6433	0.012693
121.00	0.20535	408.36	0.0024488	0.52099	0.52906	4.5150	32.332	57.091	1243.1	-0.37026	96.754	0.17053	0.011113	3.4805	0.28732	7.4839	8.4304	69.816	26.346	36.958	278.41	25.392	4.6616	0.012769
121.50	0.21259	407.59	0.0024534	0.54940	0.55777	4.7495	32.298	57.168	1237.9	-0.36738	95.808	0.16982	0.011017	3.5938	0.27826	7.4932	8.4422	69.642	26.371	37.046	278.72	25.198	4.6799	0.012846
122.00	0.22002	406.82	0.0024581	0.57785	0.58653	4.9833	32.265	57.246	1232.7	-0.36445	94.873	0.16911	0.010921	3.7099	0.26955	7.5024	8.4538	69.469	26.397	37.137	279.03	25.007	4.6983	0.012923
122.50	0.22764	406.04	0.0024628	0.60634	0.61533	5.2164	32.232	57.325	1227.5	-0.36146	93.950	0.16840	0.010826	3.8288	0.26118	7.5115	8.4653	69.298	26.424	37.228	279.34	24.819	4.7167	0.013001
123.00	0.23546	405.26	0.0024676	0.63486	0.64418	5.4489	32.199	57.406	1222.3	-0.35843	93.037	0.16768	0.010730	3.9506	0.25313	7.5206	8.4767	69.128	26.450	37.322	279.63	24.635	4.7351	0.013079
123.50	0.24347	404.48	0.0024723	0.66341	0.67306	5.6807	32.166	57.488	1217.1	-0.35535	92.135	0.16697	0.010635	4.0752	0.24539	7.5296	8.4881	68.960	26.477	37.417	279.92	24.454	4.7536	0.013158
124.00	0.25170	403.69	0.0024771	0.69199	0.70200	5.9118	32.133	57.571	1211.9	-0.35221	91.243	0.16626	0.010539	4.2028	0.23794	7.5385	8.4993	68.793	26.505	37.514	280.21	24.275	4.7721	0.013237
124.50	0.26012	402.90	0.0024820	0.72061	0.73097	6.1424	32.101	57.655	1206.6	-0.34903	90.361	0.16555	0.010444	4.3333	0.23077	7.5474	8.5104	68.628	26.532	37.613	280.48	24.100	4.7906	0.013317
125.00	0.26876	402.11	0.0024869	0.74927	0.75999	6.3722	32.069	57.741	1201.3	-0.34578	89.490	0.16483	0.010349	4.4669	0.22387	7.5562	8.5215	68.464	26.560	37.714	280.76	23.928	4.8092	0.013397
125.50	0.27761	401.32	0.0024918	0.77797	0.78906	6.6015	32.037	57.828	1196.1	-0.34248	88.629	0.16412	0.010254	4.6036	0.21722	7.5650	8.5324	68.301	26.588	37.817	281.02	23.758	4.8278	0.013478
126.00	0.28667	400.52	0.0024968	0.80670	0.81818	6.8301	32.005	57.917	1190.8	-0.33913	87.777	0.16341	0.010159	4.7434	0.21082	7.5736	8.5432	68.140	26.616	37.922	281.28	23.591	4.8465	0.013560
126.50	0.29595	399.72	0.0025018	0.83546	0.84734	7.0582	31.973	58.007	1185.5	-0.33571	86.935	0.16269	0.010065	4.8863	0.20465	7.5822	8.5539	67.979	26.645	38.028	281.53	23.427	4.8652	0.013642
127.00	0.30546	398.92	0.0025068	0.86427	0.87655	7.2856	31.942	58.099	1180.2	-0.33224	86.102	0.16198	0.0099701	5.0325	0.19871	7.5907	8.5645	67.820	26.674	38.137	281.78	23.265	4.8839	0.013724
127.50	0.31518	398.11	0.0025119	0.89311	0.90581	7.5125	31.910	58.193	1174.9	-0.32870	85.279	0.16126	0.0098756	5.1820	0.19298	7.5992	8.5750	67.663	26.703	38.248	282.02	23.106	4.9027	0.013807
128.00	0.32514	397.30	0.0025170	0.92199	0.93512	7.7388	31.879	58.288	1169.5	-0.32510	84.465	0.16055	0.0097813	5.3348	0.18745	7.6076	8.5853	67.506	26.733	38.361	282.25	22.950	4.9215	0.013891
128.50	0.33533	396.49	0.0025221	0.95091	0.96448	7.9645	31.849	58.384	1164.2	-0.32144	83.660	0.15983	0.0096871	5.4910	0.18212	7.6159	8.5956	67.350	26.762	38.477	282.48	22.795	4.9404	0.013975
129.00	0.34575	395.68	0.0025273	0.97987	0.99389	8.1897	31.818	58.482	1158.8	-0.31772	82.864	0.15912	0.0095931	5.6506	0.17697	7.6241	8.6057	67.196	26.793	38.594	282.70	22.644	4.9593	0.014060
129.50	0.35642	394.86	0.0025326	1.0089	1.0234	8.4143	31.788	58.582	1153.5	-0.31393	82.076	0.15841	0.0094992	5.8138	0.17201	7.6322	8.6157	67.043	26.823	38.714	282.92	22.494	4.9782	0.014146
130.00	0.36732	394.04	0.0025378	1.0379	1.0529	8.6383	31.757	58.684	1148.1	-0.31006	81.298	0.15769	0.0094054	5.9804	0.16721	7.6403	8.6257	66.891	26.854	38.836	283.13	22.347	4.9972	0.014232
130.50	0.37847	393.21	0.0025432	1.0670	1.0824	8.8619	31.728	58.788	1142.7	-0.30613	80.527	0.15698	0.0093117	6.1507	0.16258	7.6483	8.6354	66.739	26.885	38.961	283.33	22.203	5.0163	0.014319
131.00	0.38986	392.39	0.0025485	1.0961	1.1121	9.0849	31.698	58.893	1137.3	-0.30213	79.765	0.15626	0.0092182	6.3246	0.15811	7.6562	8.6451	66.589	26.917	39.088	283.53	22.060	5.0354	0.014406
131.50	0.40151	391.55	0.0025539	1.1253	1.1417	9.3074	31.668	59.000	1131.9	-0.29806	79.012	0.15555	0.0091249	6.5023	0.15379	7.6640	8.6547	66.440	26.949	39.218	283.72	21.920	5.0546	0.014494
132.00	0.41341	390.72	0.0025594	1.1545	1.1715	9.5294	31.639	59.110	1126.4	-0.29391	78.266	0.15483	0.0090316	6.6837	0.14962	7.6718	8.6641	66.292	26.981	39.350	283.90	21.781	5.0738	0.014583
132.50	0.42557	389.88	0.0025649	1.1838	1.2013	9.7509	31.610	59.221	1121.0	-0.28968	77.529	0.15412	0.0089386	6.8689	0.14558	7.6794	8.6734	66.144	27.013	39.485	284.08	21.645	5.0930	0.014672
133.00	0.43799	389.04	0.0025704	1.2131	1.2311	9.9719	31.581	59.334	1115.5	-0.28538	76.799	0.15340	0.0088456	7.0581	0.14168	7.6870	8.6826	65.998	27.046	39.623	284.25	21.511	5.1124	0.014762
133.50	0.45068	388.20	0.0025760	1.2424	1.2610	10.192	31.553	59.449	1110.1	-0.28100	76.077	0.15269	0.0087528	7.2512	0.13791	7.6945	8.6916	65.852	27.080	39.764	284.41	21.379	5.1318	0.014853
134.00	0.46363	387.35	0.0025817	1.2718	1.2910	10.412	31.525	59.567	1104.6	-0.27653	75.363	0.15198	0.0086602	7.4483	0.13426	7.7019	8.7005	65.708	27.113	39.907	284.57	21.248	5.1512	0.014944
134.50	0.47685	386.50	0.0025874	1.3012	1.3210	10.632	31.497	59.687	1099.1	-0.27198	74.656	0.15126	0.0085677	7.6495	0.13073	7.7093	8.7093	65.564	27.147	40.054	284.72	21.120	5.1707	0.015036
135.00	0.49035	385.64	0.0025931	1.3307	1.3511	10.851	31.469	59.809	1093.6	-0.26735	73.957	0.15055	0.0084754	7.8549	0.12731	7.7165	8.7180	65.421	27.182	40.203	284.86	20.993	5.1903	0.015129
135.50	0.50413	384.78	0.0025989	1.3603	1.3813	11.070	31.441	59.933	1088.0	-0.26263	73.265	0.14983	0.0083832	8.0644	0.12400	7.7236	8.7265	65.278	27.217	40.356	285.00	20.868	5.2100	0.015223
136.00	0.51819	383.92	0.0026047	1.3898	1.4115	11.288	31.414	60.060	1082.5	-0.25781	72.581	0.14912	0.0082912	8.2783	0.12080	7.7307	8.7349	65.137	27.252	40.511	285.13	20.745	5.2297	0.015317
136.50	0.53253	383.05	0.0026106	1.4195	1.4418	11.506	31.387	60.189	1077.0	-0.25291	71.903	0.14841	0.0081993	8.4965	0.11770	7.7377	8.7432	64.996	27.288	40.671	285.25	20.624	5.2495	0.015413
137.00	0.54716	382.18	0.0026166	1.4492	1.4721	11.723	31.360	60.321	1071.4	-0.24791	71.233	0.14769	0.0081076	8.7191	0.11469	7.7445	8.7513	64.856	27.324	40.833	285.37	20.504	5.2694	0.015509
137.50	0.56208	381.30	0.0026226	1.4789	1.5025	11.941	31.334	60.456	1065.8	-0.24281	70.570	0.14698	0.0080161	8.9462	0.11178	7.7513	8.7592	64.717	27.360	40.999	285.48	20.386	5.2893	0.015605
138.00	0.57730	380.42	0.0026286	1.5087	1.5330	12.157	31.308	60.593	1060.2	-0.23762	69.913	0.14627	0.0079247	9.1779	0.10896	7.7580	8.7671	64.578	27.397	41.169	285.58	20.270	5.3094	0.015703
138.50	0.59281	379.54	0.0026348	1.5385	1.5636	12.373	31.282	60.732	1054.6	-0.23232	69.263	0.14555	0.0078335	9.4142	0.10622	7.7646	8.7748	64.440	27.434	41.342	285.68	20.155	5.3295	0.015801
139.00	0.60863	378.65	0.0026409	1.5684	1.5942	12.589	31.256	60.875	1049.0	-0.22692	68.620	0.14484	0.0077424	9.6552	0.10357	7.7710	8.7823	64.302	27.472	41.519	285.77	20.041	5.3497	0.015901
139.50	0.62475	377.76	0.0026472	1.5984	1.6249	12.805	31.231	61.021	1043.3	-0.22141	67.983	0.14413	0.0076515	9.9010	0.10100	7.7774	8.7897	64.166	27.510	41.700	285.85	19.930	5.3700	0.016001
140.00	0.64118	376.87	0.0026535	1.6284	1.6557	13.020	31.206	61.169	1037.7	-0.21579	67.353	0.14341	0.0075608	10.152	0.098506	7.7837	8.7970	64.029	27.549	41.885	285.93	19.819	5.3904	0.016102
140.50	0.65792	375.96	0.0026598	1.6584	1.6865	13.235	31.181	61.321	1032.0	-0.21005	66.730	0.14270	0.0074703	10.407	0.096086	7.7899	8.8041	63.894	27.588	42.074	286.00	19.710	5.4109	0.016204
141.00	0.67498	375.06	0.0026662	1.6885	1.7174	13.449	31.157	61.476	1026.3	-0.20421	66.112	0.14199	0.0073799	10.668	0.093738	7.7960	8.8110	63.758	27.628	42.267	286.06	19.603	5.4315	0.016307
141.50	0.69236	374.15	0.0026727	1.7187	1.7484	13.663	31.133	61.634	1020.6	-0.19824	65.501	0.14128	0.0072897	10.934	0.091460	7.8019	8.8178	63.624	27.668	42.465	286.11	19.497	5.4522	0.016411
142.00	0.71006	373.24	0.0026793	1.7490	1.7795	13.877	31.109	61.795	1014.9	-0.19215	64.896	0.14056	0.0071997	11.205	0.089248	7.8078	8.8244	63.490	27.709	42.668	286.16	19.392	5.4730	0.016515
142.50	0.72808	372.32	0.0026859	1.7793	1.8106	14.091	31.086	61.960	1009.1	-0.18593	64.297	0.13985	0.0071099	11.481	0.087100	7.8135	8.8309	63.356	27.750	42.875	286.20	19.288	5.4939	0.016621
143.00	0.74644	371.39	0.0026926	1.8096	1.8419	14.304	31.063	62.128	1003.4	-0.17959	63.704	0.13914	0.0070202	11.763	0.085014	7.8192	8.8372	63.223	27.792	43.086	286.24	19.186	5.5149	0.016728
143.50	0.76512	370.46	0.0026993	1.8400	1.8732	14.517	31.040	62.301	997.60	-0.17311	63.117	0.13843	0.0069307	12.050	0.082989	7.8247	8.8434	63.090	27.834	43.303	286.27	19.085	5.5360	0.016836
144.00	0.78415	369.53	0.0027061	1.8705	1.9046	14.730	31.018	62.477	991.81	-0.16650	62.536	0.13771	0.0068414	12.343	0.081020	7.8301	8.8494	62.957	27.877	43.525	286.29	18.985	5.5573	0.016945
144.50	0.80351	368.59	0.0027130	1.9011	1.9360	14.942	30.996	62.656	986.00	-0.15975	61.960	0.13700	0.0067523	12.641	0.079108	7.8354	8.8552	62.825	27.921	43.752	286.30	18.886	5.5787	0.017055
145.00	0.82322	367.65	0.0027200	1.9317	1.9676	15.154	30.974	62.840	980.17	-0.15286	61.390	0.13629	0.0066634	12.945	0.077249	7.8406	8.8608	62.694	27.965	43.985	286.31	18.789	5.6002	0.017166
145.50	0.84327	366.70	0.0027270	1.9624	1.9993	15.366	30.953	63.028	974.33	-0.14581	60.826	0.13558	0.0065747	13.255	0.075443	7.8457	8.8663	62.562	28.009	44.223	286.30	18.693	5.6218	0.017278
146.00	0.86368	365.74	0.0027342	1.9931	2.0310	15.578	30.932	63.221	968.46	-0.13862	60.267	0.13487	0.0064862	13.571	0.073686	7.8506	8.8716	62.431	28.054	44.467	286.30	18.597	5.6436	0.017391
146.50	0.88444	364.78	0.0027414	2.0240	2.0628	15.789	30.912	63.417	962.58	-0.13127	59.713	0.13416	0.0063979	13.893	0.071978	7.8554	8.8767	62.300	28.100	44.718	286.28	18.503	5.6656	0.017506
147.00	0.90555	363.82	0.0027486	2.0548	2.0948	16.000	30.891	63.619	956.68	-0.12376	59.165	0.13345	0.0063097	14.221	0.070317	7.8601	8.8817	62.170	28.147	44.974	286.26	18.410	5.6876	0.017622
147.50	0.92703	362.85	0.0027560	2.0858	2.1268	16.211	30.872	63.825	950.76	-0.11608	58.622	0.13273	0.0062218	14.556	0.068700	7.8647	8.8864	62.039	28.194	45.237	286.23	18.317	5.7099	0.017739
148.00	0.94887	361.87	0.0027634	2.1169	2.1589	16.422	30.852	64.036	944.81	-0.10823	58.085	0.13202	0.0061341	14.897	0.067128	7.8692	8.8910	61.909	28.241	45.507	286.19	18.226	5.7323	0.017857
148.50	0.97108	360.88	0.0027710	2.1480	2.1911	16.633	30.834	64.252	938.85	-0.10021	57.552	0.13131	0.0060465	15.244	0.065598	7.8735	8.8954	61.780	28.290	45.783	286.15	18.136	5.7548	0.017977
149.00	0.99367	359.90	0.0027786	2.1792	2.2235	16.844	30.815	64.473	932.87	-0.092005	57.024	0.13060	0.0059592	15.599	0.064108	7.8776	8.8996	61.650	28.339	46.067	286.09	18.046	5.7776	0.018098
149.50	1.0166	358.90	0.0027863	2.2104	2.2559	17.054	30.797	64.700	926.87	-0.083615	56.502	0.12989	0.0058721	15.960	0.062658	7.8817	8.9036	61.520	28.389	46.358	286.04	17.958	5.8005	0.018220
150.00	1.0400	357.90	0.0027941	2.2418	2.2884	17.264	30.780	64.932	920.85	-0.075032	55.984	0.12918	0.0057852	16.328	0.061246	7.8856	8.9074	61.391	28.439	46.657	285.97	17.870	5.8236	0.018344
150.50	1.0637	356.89	0.0028020	2.2732	2.3211	17.474	30.762	65.170	914.80	-0.066252	55.471	0.12847	0.0056985	16.702	0.059871	7.8894	8.9110	61.262	28.491	46.964	285.89	17.783	5.8468	0.018469
151.00	1.0878	355.88	0.0028100	2.3048	2.3538	17.684	30.746	65.414	908.74	-0.057267	54.962	0.12776	0.0056121	17.085	0.058532	7.8930	8.9144	61.132	28.543	47.279	285.81	17.697	5.8703	0.018596
151.50	1.1123	354.85	0.0028181	2.3364	2.3866	17.894	30.730	65.665	902.65	-0.048072	54.459	0.12705	0.0055258	17.474	0.057228	7.8965	8.9176	61.003	28.595	47.603	285.72	17.612	5.8940	0.018724
152.00	1.1372	353.83	0.0028262	2.3681	2.4196	18.104	30.714	65.922	896.54	-0.038660	53.960	0.12633	0.0054398	17.871	0.055956	7.8998	8.9206	60.874	28.649	47.936	285.63	17.528	5.9179	0.018854
152.50	1.1625	352.79	0.0028345	2.3998	2.4527	18.314	30.699	66.185	890.41	-0.029023	53.465	0.12562	0.0053540	18.276	0.054718	7.9030	8.9234	60.745	28.704	48.279	285.52	17.444	5.9420	0.018985
153.00	1.1882	351.75	0.0028429	2.4317	2.4859	18.523	30.684	66.456	884.25	-0.019154	52.975	0.12491	0.0052684	18.688	0.053510	7.9060	8.9260	60.616	28.759	48.631	285.41	17.361	5.9663	0.019119
153.50	1.2143	350.70	0.0028514	2.4637	2.5192	18.733	30.670	66.733	878.07	-0.0090456	52.490	0.12420	0.0051831	19.108	0.052333	7.9089	8.9283	60.486	28.815	48.993	285.29	17.278	5.9909	0.019254
154.00	1.2408	349.64	0.0028601	2.4957	2.5527	18.943	30.656	67.019	871.87	0.0013101	52.008	0.12349	0.0050980	19.537	0.051185	7.9116	8.9305	60.357	28.872	49.365	285.16	17.196	6.0157	0.019390
154.50	1.2677	348.58	0.0028688	2.5279	2.5862	19.152	30.643	67.312	865.64	0.011922	51.531	0.12278	0.0050131	19.974	0.050066	7.9142	8.9324	60.228	28.930	49.749	285.03	17.115	6.0408	0.019529
155.00	1.2950	347.51	0.0028776	2.5602	2.6199	19.362	30.631	67.613	859.39	0.022798	51.058	0.12206	0.0049285	20.419	0.048974	7.9166	8.9340	60.098	28.989	50.144	284.88	17.035	6.0661	0.019670
155.50	1.3228	346.43	0.0028866	2.5925	2.6538	19.572	30.619	67.923	853.12	0.033947	50.589	0.12135	0.0048441	20.873	0.047909	7.9188	8.9354	59.968	29.049	50.551	284.73	16.955	6.0918	0.019812
156.00	1.3509	345.34	0.0028957	2.6250	2.6877	19.781	30.608	68.241	846.82	0.045380	50.124	0.12064	0.0047599	21.336	0.046870	7.9208	8.9366	59.838	29.110	50.971	284.57	16.875	6.1176	0.019957
156.50	1.3795	344.24	0.0029049	2.6575	2.7218	19.991	30.597	68.569	840.49	0.057107	49.663	0.11993	0.0046760	21.807	0.045856	7.9227	8.9376	59.708	29.171	51.403	284.41	16.796	6.1438	0.020103
157.00	1.4086	343.14	0.0029143	2.6902	2.7561	20.201	30.587	68.906	834.14	0.069137	49.206	0.11921	0.0045924	22.288	0.044866	7.9244	8.9383	59.578	29.234	51.849	284.23	16.718	6.1703	0.020252
157.50	1.4380	342.02	0.0029238	2.7230	2.7905	20.411	30.578	69.253	827.76	0.081482	48.753	0.11850	0.0045090	22.779	0.043900	7.9259	8.9387	59.447	29.298	52.310	284.05	16.639	6.1971	0.020404
158.00	1.4680	340.90	0.0029334	2.7559	2.8250	20.621	30.569	69.611	821.35	0.094153	48.303	0.11779	0.0044259	23.279	0.042957	7.9272	8.9389	59.316	29.363	52.785	283.86	16.562	6.2242	0.020557
158.50	1.4983	339.77	0.0029432	2.7889	2.8597	20.831	30.561	69.980	814.91	0.10716	47.857	0.11707	0.0043430	23.789	0.042036	7.9284	8.9388	59.185	29.430	53.276	283.66	16.484	6.2517	0.020713
159.00	1.5291	338.63	0.0029531	2.8221	2.8945	21.041	30.554	70.360	808.45	0.12052	47.415	0.11636	0.0042604	24.310	0.041136	7.9293	8.9385	59.053	29.497	53.783	283.45	16.408	6.2795	0.020872
159.50	1.5604	337.48	0.0029632	2.8553	2.9295	21.252	30.547	70.752	801.96	0.13425	46.976	0.11564	0.0041780	24.840	0.040257	7.9301	8.9378	58.921	29.566	54.307	283.23	16.331	6.3077	0.021033
160.00	1.5921	336.31	0.0029734	2.8887	2.9647	21.462	30.541	71.156	795.43	0.14836	46.541	0.11493	0.0040959	25.382	0.039398	7.9306	8.9369	58.789	29.636	54.849	283.01	16.255	6.3362	0.021197
160.50	1.6242	335.14	0.0029838	2.9222	3.0000	21.673	30.536	71.574	788.88	0.16285	46.109	0.11421	0.0040141	25.934	0.038559	7.9310	8.9357	58.656	29.707	55.410	282.78	16.178	6.3652	0.021364
161.00	1.6569	333.96	0.0029943	2.9559	3.0355	21.884	30.532	72.005	782.30	0.17776	45.680	0.11350	0.0039326	26.498	0.037739	7.9311	8.9342	58.522	29.779	55.991	282.54	16.103	6.3945	0.021534
161.50	1.6900	332.77	0.0030051	2.9897	3.0712	22.095	30.529	72.451	775.68	0.19310	45.254	0.11278	0.0038514	27.073	0.036938	7.9310	8.9325	58.388	29.853	56.593	282.29	16.027	6.4243	0.021707
162.00	1.7235	331.57	0.0030160	3.0236	3.1070	22.307	30.526	72.912	769.03	0.20888	44.832	0.11206	0.0037705	27.660	0.036154	7.9307	8.9304	58.254	29.928	57.217	282.03	15.951	6.4546	0.021884
162.50	1.7576	330.35	0.0030271	3.0577	3.1430	22.519	30.524	73.389	762.35	0.22512	44.413	0.11134	0.0036898	28.259	0.035388	7.9301	8.9280	58.118	30.005	57.864	281.76	15.876	6.4852	0.022063
163.00	1.7921	329.13	0.0030384	3.0919	3.1793	22.731	30.524	73.882	755.64	0.24184	43.996	0.11062	0.0036094	28.870	0.034638	7.9294	8.9252	57.982	30.083	58.536	281.49	15.801	6.5164	0.022247
163.50	1.8271	327.89	0.0030498	3.1263	3.2157	22.944	30.524	74.394	748.89	0.25906	43.583	0.10990	0.0035294	29.494	0.033905	7.9283	8.9222	57.846	30.163	59.233	281.20	15.726	6.5481	0.022434
164.00	1.8626	326.64	0.0030615	3.1608	3.2523	23.157	30.525	74.924	742.10	0.27681	43.172	0.10918	0.0034496	30.132	0.033187	7.9271	8.9188	57.708	30.244	59.958	280.91	15.650	6.5803	0.022625
164.50	1.8986	325.37	0.0030734	3.1955	3.2891	23.370	30.527	75.473	735.28	0.29511	42.764	0.10846	0.0033702	30.783	0.032485	7.9256	8.9150	57.570	30.328	60.712	280.61	15.575	6.6131	0.022820
165.00	1.9351	324.10	0.0030855	3.2304	3.3262	23.584	30.531	76.044	728.42	0.31398	42.359	0.10774	0.0032911	31.448	0.031798	7.9238	8.9109	57.431	30.412	61.496	280.30	15.500	6.6464	0.023020
165.50	1.9721	322.81	0.0030978	3.2654	3.3634	23.798	30.535	76.636	721.53	0.33345	41.956	0.10702	0.0032123	32.128	0.031126	7.9217	8.9065	57.291	30.499	62.313	279.97	15.424	6.6803	0.023224
166.00	2.0096	321.50	0.0031104	3.3006	3.4009	24.013	30.541	77.252	714.59	0.35354	41.556	0.10629	0.0031338	32.822	0.030467	7.9194	8.9017	57.150	30.588	63.165	279.65	15.349	6.7148	0.023433
166.50	2.0476	320.18	0.0031232	3.3360	3.4386	24.229	30.548	77.893	707.61	0.37429	41.158	0.10557	0.0030557	33.532	0.029823	7.9168	8.8965	57.009	30.678	64.053	279.31	15.273	6.7500	0.023647
167.00	2.0861	318.85	0.0031363	3.3716	3.4766	24.445	30.556	78.560	700.59	0.39573	40.763	0.10484	0.0029779	34.257	0.029191	7.9139	8.8908	56.866	30.771	64.980	278.96	15.197	6.7859	0.023866
167.50	2.1252	317.50	0.0031496	3.4074	3.5148	24.661	30.565	79.255	693.53	0.41789	40.369	0.10411	0.0029004	34.999	0.028572	7.9107	8.8848	56.721	30.865	65.949	278.60	15.121	6.8225	0.024091
168.00	2.1647	316.14	0.0031632	3.4434	3.5532	24.879	30.576	79.979	686.42	0.44080	39.978	0.10338	0.0028233	35.758	0.027966	7.9072	8.8784	56.576	30.962	66.963	278.23	15.044	6.8598	0.024322
168.50	2.2048	314.75	0.0031771	3.4796	3.5919	25.097	30.588	80.736	679.27	0.46452	39.589	0.10265	0.0027466	36.534	0.027372	7.9034	8.8715	56.430	31.061	68.024	277.86	14.967	6.8980	0.024559
169.00	2.2455	313.35	0.0031913	3.5160	3.6309	25.315	30.602	81.526	672.07	0.48907	39.201	0.10192	0.0026702	37.328	0.026789	7.8992	8.8642	56.282	31.163	69.136	277.47	14.889	6.9369	0.024803
169.50	2.2866	311.94	0.0032058	3.5526	3.6702	25.535	30.617	82.353	664.82	0.51450	38.816	0.10119	0.0025942	38.141	0.026218	7.8947	8.8565	56.132	31.267	70.302	277.07	14.811	6.9767	0.025055
170.00	2.3283	310.50	0.0032206	3.5895	3.7098	25.755	30.634	83.218	657.52	0.54087	38.432	0.10046	0.0025186	38.974	0.025658	7.8898	8.8482	55.982	31.374	71.527	276.66	14.732	7.0175	0.025314
170.50	2.3706	309.05	0.0032358	3.6266	3.7496	25.977	30.653	84.125	650.17	0.56821	38.050	0.099722	0.0024433	39.827	0.025109	7.8846	8.8395	55.829	31.483	72.815	276.25	14.653	7.0592	0.025581
171.00	2.4134	307.57	0.0032513	3.6640	3.7898	26.199	30.674	85.077	642.76	0.59659	37.669	0.098986	0.0023685	40.700	0.024570	7.8790	8.8303	55.675	31.595	74.172	275.82	14.573	7.1019	0.025856
171.50	2.4568	306.08	0.0032672	3.7016	3.8304	26.422	30.696	86.077	635.29	0.62606	37.289	0.098248	0.0022940	41.596	0.024041	7.8730	8.8205	55.520	31.710	75.601	275.38	14.492	7.1457	0.026141
172.00	2.5007	304.56	0.0032834	3.7395	3.8712	26.647	30.721	87.130	627.77	0.65670	36.911	0.097508	0.0022200	42.514	0.023522	7.8666	8.8102	55.362	31.829	77.111	274.93	14.410	7.1906	0.026436
172.50	2.5452	303.02	0.0033001	3.7777	3.9124	26.873	30.748	88.239	620.19	0.68856	36.534	0.096767	0.0021464	43.456	0.023012	7.8597	8.7994	55.203	31.950	78.706	274.47	14.328	7.2367	0.026742
173.00	2.5903	301.45	0.0033172	3.8162	3.9540	27.099	30.777	89.409	612.54	0.72173	36.158	0.096024	0.0020732	44.422	0.022511	7.8524	8.7879	55.041	32.076	80.395	274.00	14.244	7.2840	0.027059
173.50	2.6360	299.87	0.0033348	3.8550	3.9960	27.328	30.809	90.645	604.83	0.75628	35.782	0.095280	0.0020005	45.415	0.022019	7.8447	8.7758	54.877	32.204	82.187	273.51	14.159	7.3327	0.027389
174.00	2.6822	298.25	0.0033529	3.8941	4.0384	27.557	30.843	91.954	597.05	0.79231	35.407	0.094534	0.0019282	46.434	0.021536	7.8364	8.7631	54.711	32.337	84.089	273.02	14.073	7.3827	0.027732
174.50	2.7291	296.61	0.0033715	3.9336	4.0812	27.788	30.880	93.342	589.20	0.82991	35.033	0.093787	0.0018564	47.481	0.021061	7.8277	8.7498	54.542	32.474	86.114	272.51	13.985	7.4343	0.028090
175.00	2.7765	294.94	0.0033906	3.9734	4.1244	28.021	30.920	94.816	581.27	0.86918	34.659	0.093038	0.0017851	48.559	0.020594	7.8184	8.7357	54.371	32.615	88.273	271.99	13.896	7.4874	0.028463
175.50	2.8245	293.23	0.0034102	4.0136	4.1681	28.256	30.964	96.386	573.27	0.91025	34.285	0.092287	0.0017143	49.667	0.020134	7.8086	8.7209	54.197	32.761	90.579	271.46	13.806	7.5422	0.028854
176.00	2.8732	291.50	0.0034305	4.0542	4.2123	28.492	31.011	98.060	565.18	0.95324	33.911	0.091535	0.0016439	50.808	0.019682	7.7981	8.7053	54.020	32.912	93.049	270.92	13.713	7.5989	0.029263
176.50	2.9225	289.73	0.0034514	4.0952	4.2570	28.730	31.062	99.850	557.01	0.99828	33.537	0.090781	0.0015741	51.984	0.019237	7.7871	8.6890	53.840	33.067	95.699	270.36	13.619	7.6574	0.029693
177.00	2.9724	287.93	0.0034730	4.1367	4.3023	28.971	31.116	101.77	548.75	1.0455	33.162	0.090026	0.0015048	53.197	0.018798	7.7754	8.6718	53.657	33.229	98.550	269.79	13.523	7.7180	0.030145
177.50	3.0229	286.09	0.0034954	4.1786	4.3481	29.213	31.176	103.83	540.39	1.0952	32.787	0.089270	0.0014361	54.448	0.018366	7.7630	8.6537	53.470	33.396	101.63	269.20	13.424	7.7808	0.030622
178.00	3.0740	284.21	0.0035185	4.2211	4.3946	29.458	31.240	106.05	531.94	1.1474	32.411	0.088513	0.0013680	55.740	0.017941	7.7499	8.6347	53.279	33.570	104.95	268.60	13.323	7.8460	0.031127
178.50	3.1258	282.29	0.0035425	4.2640	4.4417	29.706	31.309	108.45	523.38	1.2024	32.033	0.087756	0.0013004	57.075	0.017521	7.7361	8.6147	53.084	33.750	108.56	267.99	13.220	7.9138	0.031661
179.00	3.1783	280.32	0.0035674	4.3076	4.4895	29.957	31.384	111.06	514.71	1.2604	31.653	0.086998	0.0012334	58.458	0.017106	7.7214	8.5936	52.885	33.938	112.50	267.36	13.114	7.9843	0.032230
179.50	3.2314	278.30	0.0035933	4.3517	4.5380	30.210	31.466	113.89	505.92	1.3217	31.272	0.086240	0.0011671	59.890	0.016697	7.7058	8.5714	52.681	34.134	116.79	266.71	13.004	8.0578	0.032836
180.00	3.2852	276.23	0.0036202	4.3965	4.5873	30.467	31.554	116.99	497.01	1.3866	30.888	0.085482	0.0011014	61.375	0.016293	7.6893	8.5480	52.471	34.338	121.51	266.04	12.892	8.1346	0.033484
180.50	3.3396	274.10	0.0036483	4.4420	4.6374	30.728	31.651	120.39	487.97	1.4554	30.502	0.084727	0.0010365	62.918	0.015894	7.6718	8.5234	52.257	34.552	126.70	265.36	12.775	8.2150	0.034179
181.00	3.3948	271.91	0.0036776	4.4882	4.6885	30.992	31.756	124.14	478.78	1.5285	30.112	0.083973	0.00097221	64.523	0.015498	7.6533	8.4973	52.036	34.776	132.46	264.65	12.655	8.2992	0.034929
181.50	3.4506	269.66	0.0037084	4.5352	4.7405	31.261	31.870	128.30	469.44	1.6063	29.718	0.083223	0.00090869	66.195	0.015107	7.6335	8.4698	51.808	35.010	138.86	263.92	12.530	8.3878	0.035739
182.00	3.5071	267.33	0.0037407	4.5832	4.7937	31.535	31.996	132.94	459.94	1.6894	29.320	0.082478	0.00084596	67.940	0.014719	7.6125	8.4406	51.573	35.257	146.04	263.17	12.401	8.4811	0.036620
182.50	3.5644	264.92	0.0037747	4.6321	4.8480	31.814	32.134	138.14	450.26	1.7784	28.916	0.081740	0.00078405	69.765	0.014334	7.5901	8.4097	51.331	35.518	154.12	262.40	12.266	8.5797	0.037582
183.00	3.6224	262.43	0.0038105	4.6821	4.9035	32.099	32.286	144.04	440.39	1.8738	28.507	0.081012	0.00072300	71.679	0.013951	7.5661	8.3769	51.079	35.794	163.30	261.59	12.126	8.6842	0.038637
183.50	3.6811	259.84	0.0038485	4.7333	4.9606	32.390	32.454	150.76	430.31	1.9766	28.090	0.080296	0.00066287	73.690	0.013570	7.5405	8.3419	50.817	36.086	173.82	260.76	11.979	8.7954	0.039804
184.00	3.7405	257.14	0.0038889	4.7858	5.0192	32.689	32.641	158.52	420.00	2.0877	27.665	0.079598	0.00060371	75.810	0.013191	7.5131	8.3046	50.545	36.397	185.97	259.89	11.825	8.9141	0.041100
184.50	3.8007	254.32	0.0039321	4.8398	5.0795	32.996	32.850	167.55	409.43	2.2083	27.231	0.078924	0.00054558	78.053	0.012812	7.4835	8.2647	50.260	36.730	200.18	258.98	11.663	9.0414	0.042554
185.00	3.8617	251.36	0.0039784	4.8955	5.1420	33.313	33.085	178.22	398.59	2.3397	26.784	0.078283	0.00048857	80.435	0.012432	7.4515	8.2217	49.961	37.087	217.01	258.03	11.492	9.1786	0.044197
185.50	3.9235	248.24	0.0040284	4.9531	5.2067	33.641	33.351	191.03	387.42	2.4836	26.325	0.077685	0.00043276	82.976	0.012052	7.4168	8.1754	49.645	37.473	237.25	257.03	11.310	9.3275	0.046074
186.00	3.9860	244.93	0.0040828	5.0131	5.2741	33.982	33.654	206.68	375.88	2.6424	25.848	0.077150	0.00037825	85.704	0.011668	7.3790	8.1252	49.311	37.893	262.03	255.97	11.116	9.4902	0.048246
186.50	4.0494	241.40	0.0041425	5.0757	5.3448	34.339	34.005	226.27	363.93	2.8186	25.352	0.076702	0.00032517	88.653	0.011280	7.3375	8.0703	48.953	38.354	293.07	254.83	10.908	9.6695	0.050794
187.00	4.1137	237.61	0.0042086	5.1415	5.4193	34.715	34.415	251.50	351.48	3.0161	24.830	0.076382	0.00027368	91.867	0.010885	7.2915	8.0099	48.569	38.866	333.07	253.60	10.684	9.8693	0.053842
187.50	4.1788	233.48	0.0042830	5.2114	5.4985	35.115	34.904	285.24	338.41	3.2398	24.277	0.076256	0.00022397	95.411	0.010481	7.2400	7.9426	48.150	39.443	386.54	252.24	10.439	10.095	0.057575
188.00	4.2448	228.93	0.0043681	5.2864	5.5839	35.545	35.503	332.70	324.57	3.4968	23.683	0.076438	0.00017631	99.377	0.010063	7.1814	7.8667	47.688	40.109	461.61	250.72	10.167	10.354	0.062294
188.50	4.3117	223.81	0.0044681	5.3684	5.6775	36.017	36.266	404.38	309.67	3.7979	23.031	0.077144	0.00013107	103.91	0.0096237	7.1135	7.7792	47.167	40.905	574.63	248.94	9.8614	10.660	0.068537
189.00	4.3796	217.87	0.0045899	5.4603	5.7828	36.549	37.302	525.08	293.23	4.1610	22.298	0.078848	8.8793e-05	109.26	0.0091526	7.0322	7.6753	46.562	41.916	763.79	246.75	9.5063	11.034	0.077388
189.50	4.4485	210.62	0.0047480	5.5682	5.9070	37.178	38.864	769.83	274.24	4.6194	21.430	0.082816	5.0380e-05	115.92	0.0086268	6.9296	7.5452	45.823	43.338	1143.1	243.73	9.0739	11.520	0.091517
190.00	4.5186	200.78	0.0049806	5.7074	6.0685	38.000	41.746	1508.2	250.31	5.2488	20.291	0.094152	1.7679e-05	125.18	0.0079887	6.7850	7.3641	44.819	45.796	2259.0	238.55	8.4951	12.237	0.12052
