#Temperature (K)	Pressure (MPa)	Density (l, kg/m3)	Volume (l, m3/kg)	Internal Energy (l, kJ/mol)	Enthalpy (l, kJ/mol)	Entropy (l, J/mol*K)	Cv (l, J/mol*K)	Cp (l, J/mol*K)	Sound Spd. (l, m/s)	Joule-Thomson (l, K/MPa)	Viscosity (l, uPa*s)	Therm. Cond. (l, W/m*K)	Surf. Tension (l, N/m)	Density (v, kg/m3)	Volume (v, m3/kg)	Internal Energy (v, kJ/mol)	Enthalpy (v, kJ/mol)	Entropy (v, J/mol*K)	Cv (v, J/mol*K)	Cp (v, J/mol*K)	Sound Spd. (v, m/s)	Joule-Thomson (v, K/MPa)	Viscosity (v, uPa*s)	Therm. Cond. (v, W/m*K)
275.00	0.00069845	999.89	0.0010001	0.13978	0.13979	0.51000	75.903	75.915	1411.4	-0.23965	1682.1	0.56022	0.075388	0.0055066	181.60	42.830	45.115	164.06	25.580	33.980	410.33	558.89	8.9986	0.016879
280.00	0.00099182	999.86	0.0010001	0.51876	0.51877	1.8757	75.669	75.688	1434.1	-0.23515	1433.7	0.57191	0.074677	0.0076812	130.19	42.954	45.280	161.74	25.657	34.073	413.92	477.26	9.1447	0.017204
285.00	0.0013890	999.47	0.0010005	0.89678	0.89681	3.2139	75.397	75.533	1454.3	-0.23102	1239.3	0.58253	0.073951	0.010571	94.602	43.078	45.445	159.52	25.736	34.170	417.48	408.81	9.2941	0.017535
290.00	0.0019200	998.76	0.0010012	1.2742	1.2742	4.5266	75.095	75.429	1472.1	-0.22720	1084.0	0.59224	0.073210	0.014363	69.625	43.201	45.609	157.41	25.816	34.270	420.99	351.65	9.4466	0.017872
295.00	0.0026212	997.76	0.0010022	1.6511	1.6512	5.8154	74.765	75.361	1487.7	-0.22362	957.83	0.60118	0.072455	0.019281	51.865	43.324	45.773	155.38	25.898	34.374	424.46	304.01	9.6018	0.018214
300.00	0.0035368	996.51	0.0010035	2.0278	2.0279	7.0816	74.412	75.320	1501.4	-0.22024	853.75	0.60944	0.071686	0.025590	39.078	43.446	45.936	153.44	25.982	34.483	427.89	264.35	9.7596	0.018563
305.00	0.0047193	995.03	0.0010050	2.4044	2.4044	8.3264	74.038	75.300	1513.1	-0.21702	766.79	0.61711	0.070903	0.033598	29.764	43.568	46.099	151.59	26.069	34.596	431.28	231.32	9.9196	0.018918
310.00	0.0062311	993.34	0.0010067	2.7808	2.7810	9.5507	73.645	75.294	1523.2	-0.21393	693.32	0.62422	0.070106	0.043663	22.903	43.690	46.261	149.81	26.158	34.716	434.63	203.74	10.082	0.019279
315.00	0.0081451	991.46	0.0010086	3.1573	3.1575	10.756	73.235	75.301	1531.7	-0.21094	630.64	0.63082	0.069295	0.056195	17.795	43.811	46.422	148.10	26.252	34.843	437.93	180.66	10.246	0.019646
320.00	0.010546	989.39	0.0010107	3.5339	3.5340	11.941	72.811	75.317	1538.7	-0.20804	576.71	0.63695	0.068470	0.071662	13.954	43.931	46.582	146.47	26.350	34.980	441.18	161.25	10.411	0.020021
325.00	0.013531	987.15	0.0010130	3.9105	3.9107	13.109	72.374	75.342	1544.3	-0.20520	529.95	0.64262	0.067632	0.090590	11.039	44.051	46.742	144.90	26.456	35.127	444.39	144.85	10.578	0.020403
330.00	0.017213	984.75	0.0010155	4.2873	4.2876	14.260	71.927	75.373	1548.7	-0.20241	489.13	0.64787	0.066781	0.11357	8.8050	44.169	46.900	143.39	26.568	35.287	447.54	130.92	10.747	0.020793
335.00	0.021718	982.20	0.0010181	4.6642	4.6646	15.394	71.471	75.411	1551.9	-0.19964	453.28	0.65270	0.065917	0.14127	7.0788	44.287	47.057	141.94	26.690	35.462	450.64	119.01	10.916	0.021191
340.00	0.027188	979.50	0.0010209	5.0414	5.0419	16.511	71.008	75.456	1553.9	-0.19690	421.61	0.65713	0.065040	0.17440	5.7339	44.404	47.212	140.54	26.821	35.653	453.68	108.77	11.087	0.021599
345.00	0.033783	976.67	0.0010239	5.4187	5.4194	17.613	70.541	75.508	1554.9	-0.19415	393.51	0.66117	0.064150	0.21378	4.6776	44.520	47.367	139.20	26.963	35.862	456.67	99.902	11.258	0.022016
350.00	0.041682	973.70	0.0010270	5.7964	5.7972	18.700	70.070	75.567	1554.8	-0.19140	368.45	0.66484	0.063248	0.26029	3.8419	44.634	47.519	137.91	27.118	36.091	459.58	92.178	11.430	0.022442
355.00	0.051080	970.61	0.0010303	6.1743	6.1753	19.772	69.597	75.633	1553.9	-0.18862	346.02	0.66815	0.062333	0.31487	3.1759	44.748	47.670	136.66	27.286	36.342	462.44	85.409	11.603	0.022880
360.00	0.062194	967.39	0.0010337	6.5526	6.5538	20.830	69.124	75.708	1552.0	-0.18581	325.85	0.67109	0.061406	0.37858	2.6414	44.860	47.819	135.46	27.469	36.617	465.22	79.440	11.776	0.023329
365.00	0.075260	964.05	0.0010373	6.9313	6.9327	21.875	68.651	75.791	1549.3	-0.18296	307.65	0.67369	0.060467	0.45253	2.2098	44.970	47.966	134.30	27.667	36.919	467.93	74.148	11.949	0.023790
370.00	0.090535	960.59	0.0010410	7.3104	7.3121	22.906	68.180	75.883	1545.8	-0.18005	291.17	0.67596	0.059517	0.53792	1.8590	45.079	48.111	133.17	27.883	37.249	470.57	69.427	12.123	0.024265
375.00	0.10830	957.01	0.0010449	7.6900	7.6920	23.925	67.712	75.985	1541.5	-0.17708	276.21	0.67789	0.058555	0.63605	1.5722	45.186	48.254	132.09	28.118	37.610	473.13	65.193	12.296	0.024752
380.00	0.12885	953.33	0.0010490	8.0701	8.0725	24.932	67.247	76.098	1536.5	-0.17404	262.58	0.67950	0.057581	0.74830	1.3364	45.291	48.393	131.04	28.372	38.004	475.61	61.373	12.470	0.025255
385.00	0.15252	949.53	0.0010532	8.4507	8.4536	25.927	66.787	76.222	1530.7	-0.17091	250.13	0.68079	0.056596	0.87615	1.1414	45.395	48.531	130.02	28.647	38.434	478.01	57.909	12.644	0.025773
390.00	0.17964	945.62	0.0010575	8.8320	8.8354	26.911	66.331	76.357	1524.3	-0.16769	238.73	0.68178	0.055601	1.0212	0.97928	45.496	48.665	129.04	28.944	38.903	480.32	54.749	12.817	0.026307
395.00	0.21060	941.61	0.0010620	9.2139	9.2179	27.884	65.882	76.504	1517.2	-0.16436	228.26	0.68246	0.054595	1.1850	0.84389	45.594	48.796	128.08	29.264	39.412	482.54	51.852	12.991	0.026858
400.00	0.24577	937.49	0.0010667	9.5966	9.6013	28.847	65.438	76.664	1509.5	-0.16092	218.62	0.68285	0.053578	1.3694	0.73024	45.691	48.924	127.15	29.608	39.963	484.67	49.181	13.164	0.027427
405.00	0.28558	933.26	0.0010715	9.9800	9.9855	29.800	65.001	76.838	1501.1	-0.15736	209.73	0.68296	0.052551	1.5763	0.63441	45.785	49.049	126.25	29.976	40.560	486.71	46.707	13.337	0.028015
410.00	0.33045	928.92	0.0010765	10.364	10.371	30.743	64.570	77.026	1492.2	-0.15366	201.51	0.68278	0.051514	1.8076	0.55323	45.876	49.170	125.37	30.369	41.203	488.65	44.405	13.509	0.028622
415.00	0.38087	924.48	0.0010817	10.750	10.757	31.677	64.147	77.229	1482.6	-0.14982	193.89	0.68233	0.050468	2.0654	0.48418	45.964	49.287	124.52	30.788	41.894	490.49	42.254	13.681	0.029250
420.00	0.43730	919.93	0.0010870	11.136	11.144	32.602	63.731	77.447	1472.5	-0.14581	186.81	0.68161	0.049411	2.3518	0.42520	46.050	49.400	123.69	31.230	42.634	492.22	40.237	13.853	0.029900
425.00	0.50025	915.27	0.0010926	11.523	11.533	33.519	63.322	77.682	1461.8	-0.14164	180.23	0.68062	0.048346	2.6693	0.37463	46.132	49.508	122.87	31.697	43.425	493.86	38.339	14.025	0.030573
430.00	0.57026	910.51	0.0010983	11.911	11.923	34.427	62.920	77.934	1450.6	-0.13728	174.09	0.67938	0.047272	3.0202	0.33110	46.211	49.613	122.08	32.187	44.269	495.39	36.550	14.196	0.031269
435.00	0.64787	905.63	0.0011042	12.301	12.314	35.328	62.526	78.205	1438.8	-0.13271	168.35	0.67822	0.046189	3.4072	0.29350	46.287	49.712	121.30	32.700	45.164	496.81	34.859	14.367	0.031990
440.00	0.73367	900.65	0.0011103	12.692	12.706	36.222	62.140	78.495	1426.5	-0.12794	162.98	0.67665	0.045098	3.8329	0.26090	46.359	49.807	120.54	33.234	46.114	498.12	33.259	14.537	0.032737
445.00	0.82824	895.55	0.0011166	13.084	13.101	37.108	61.761	78.805	1413.7	-0.12293	157.95	0.67481	0.043999	4.3001	0.23255	46.427	49.897	119.80	33.788	47.117	499.32	31.744	14.708	0.033510
450.00	0.93220	890.34	0.0011232	13.477	13.496	37.988	61.390	79.136	1400.4	-0.11767	153.22	0.67272	0.042891	4.8120	0.20781	46.492	49.982	119.07	34.362	48.177	500.41	30.307	14.878	0.034312
455.00	1.0462	885.01	0.0011299	13.873	13.894	38.862	61.027	79.491	1386.5	-0.11214	148.76	0.67039	0.041777	5.3717	0.18616	46.552	50.061	118.35	34.953	49.293	501.39	28.945	15.048	0.035143
460.00	1.1709	879.57	0.0011369	14.269	14.293	39.729	60.671	79.869	1372.2	-0.10631	144.57	0.66783	0.040655	5.9826	0.16715	46.609	50.134	117.64	35.561	50.469	502.24	27.653	15.218	0.036004
465.00	1.3069	874.00	0.0011442	14.668	14.695	40.591	60.324	80.274	1357.3	-0.10017	140.60	0.66504	0.039527	6.6484	0.15041	46.660	50.202	116.95	36.184	51.705	502.98	26.427	15.388	0.036898
470.00	1.4551	868.31	0.0011517	15.068	15.098	41.448	59.984	80.706	1342.0	-0.093693	136.85	0.66203	0.038392	7.3727	0.13564	46.708	50.263	116.27	36.821	53.005	503.60	25.265	15.559	0.037824
475.00	1.6160	862.49	0.0011594	15.471	15.504	42.300	59.651	81.168	1326.1	-0.086840	133.29	0.65879	0.037252	8.1598	0.12255	46.750	50.318	115.59	37.472	54.371	504.09	24.163	15.729	0.038787
480.00	1.7905	856.54	0.0011675	15.875	15.913	43.147	59.327	81.662	1309.8	-0.079585	129.91	0.65535	0.036105	9.0139	0.11094	46.788	50.367	114.93	38.137	55.809	504.45	23.118	15.901	0.039786
485.00	1.9792	850.45	0.0011758	16.281	16.323	43.990	59.010	82.191	1293.0	-0.071893	126.69	0.65168	0.034954	9.9397	0.10061	46.821	50.408	114.27	38.814	57.323	504.68	22.127	16.072	0.040824
490.00	2.1831	844.22	0.0011845	16.690	16.737	44.830	58.702	82.757	1275.7	-0.063724	123.63	0.64781	0.033797	10.942	0.091390	46.848	50.442	113.62	39.503	58.919	504.78	21.187	16.245	0.041903
495.00	2.4028	837.84	0.0011935	17.102	17.153	45.665	58.401	83.363	1257.9	-0.055036	120.70	0.64373	0.032637	12.027	0.083149	46.869	50.469	112.97	40.205	60.605	504.74	20.296	16.419	0.043027
500.00	2.6392	831.31	0.0012029	17.515	17.573	46.498	58.109	84.013	1239.6	-0.045781	117.90	0.63944	0.031472	13.199	0.075764	46.885	50.487	112.33	40.920	62.388	504.55	19.450	16.594	0.044197
505.00	2.8931	824.63	0.0012127	17.932	17.995	47.328	57.824	84.712	1220.8	-0.035903	115.21	0.63494	0.030304	14.465	0.069131	46.895	50.498	111.69	41.648	64.279	504.21	18.648	16.770	0.045418
510.00	3.1655	817.77	0.0012228	18.352	18.421	48.156	57.548	85.464	1201.5	-0.025343	112.63	0.63024	0.029133	15.833	0.063161	46.898	50.500	111.05	42.391	66.289	503.71	17.886	16.949	0.046692
515.00	3.4571	810.74	0.0012334	18.774	18.851	48.982	57.281	86.274	1181.6	-0.014030	110.15	0.62533	0.027959	17.308	0.057776	46.894	50.492	110.42	43.148	68.432	503.06	17.163	17.129	0.048025
520.00	3.7690	803.53	0.0012445	19.200	19.285	49.807	57.023	87.149	1161.3	-0.0018868	107.75	0.62021	0.026784	18.900	0.052910	46.883	50.475	109.79	43.920	70.723	502.23	16.475	17.312	0.049421
525.00	4.1019	796.13	0.0012561	19.630	19.723	50.631	56.775	88.096	1140.5	0.011177	105.44	0.61489	0.025608	20.617	0.048503	46.864	50.448	109.16	44.710	73.181	501.23	15.820	17.498	0.050888
530.00	4.4569	788.53	0.0012682	20.064	20.165	51.454	56.536	89.124	1119.1	0.025264	103.19	0.60937	0.024430	22.470	0.044503	46.838	50.411	108.52	45.519	75.827	500.05	15.197	17.688	0.052431
535.00	4.8349	780.71	0.0012809	20.501	20.613	52.278	56.307	90.242	1097.1	0.040493	101.01	0.60363	0.023253	24.469	0.040868	46.803	50.362	107.88	46.347	78.686	498.68	14.602	17.882	0.054060
540.00	5.2369	772.66	0.0012942	20.943	21.065	53.102	56.089	91.464	1074.6	0.057002	98.894	0.59769	0.022077	26.627	0.037556	46.758	50.302	107.24	47.197	81.789	497.10	14.035	18.080	0.055784
545.00	5.6640	764.36	0.0013083	21.390	21.523	53.928	55.884	92.802	1051.6	0.074951	96.826	0.59153	0.020902	28.956	0.034535	46.705	50.228	106.60	48.070	85.170	495.32	13.492	18.284	0.057617
550.00	6.1172	755.81	0.0013231	21.841	21.987	54.756	55.690	94.275	1027.9	0.094527	94.803	0.58516	0.019730	31.474	0.031772	46.641	50.142	105.95	48.968	88.873	493.31	12.973	18.494	0.059574
555.00	6.5976	746.97	0.0013387	22.299	22.458	55.587	55.511	95.904	1003.5	0.11595	92.820	0.57856	0.018561	34.198	0.029242	46.565	50.041	105.29	49.893	92.949	491.07	12.475	18.711	0.061672
560.00	7.1062	737.83	0.0013553	22.762	22.935	56.422	55.347	97.713	978.54	0.13949	90.871	0.57174	0.017396	37.147	0.026920	46.478	49.925	104.62	50.848	97.461	488.58	11.997	18.936	0.063934
565.00	7.6444	728.36	0.0013729	23.232	23.421	57.261	55.199	99.735	952.85	0.16546	88.948	0.56468	0.016236	40.346	0.024786	46.378	49.792	103.94	51.835	102.49	485.83	11.537	19.171	0.066389
570.00	8.2132	718.53	0.0013917	23.709	23.915	58.106	55.071	102.01	926.44	0.19425	87.046	0.55738	0.015082	43.822	0.022820	46.264	49.641	103.24	52.856	108.13	482.79	11.093	19.418	0.069073
575.00	8.8140	708.30	0.0014118	24.194	24.418	58.959	54.964	104.59	899.25	0.22630	85.158	0.54982	0.013937	47.607	0.021005	46.135	49.470	102.53	53.916	114.50	479.46	10.664	19.677	0.072029
580.00	9.4480	697.64	0.0014334	24.688	24.932	59.821	54.881	107.54	871.23	0.26220	83.278	0.54200	0.012800	51.739	0.019328	45.988	49.278	101.80	55.017	121.78	475.80	10.248	19.952	0.075315
585.00	10.117	686.48	0.0014567	25.192	25.457	60.693	54.828	110.94	842.34	0.30266	81.397	0.53389	0.011673	56.265	0.017773	45.823	49.062	101.04	56.163	130.16	471.80	9.8442	20.246	0.079006
590.00	10.821	674.78	0.0014820	25.707	25.996	61.577	54.808	114.91	812.49	0.34857	79.509	0.52548	0.010559	61.242	0.016329	45.636	48.819	100.26	57.361	139.94	467.41	9.4499	20.561	0.083199
595.00	11.563	662.45	0.0015095	26.234	26.549	62.477	54.829	119.61	781.60	0.40108	77.602	0.51675	0.0094591	66.738	0.014984	45.426	48.547	99.450	58.617	151.50	462.60	9.0638	20.903	0.088026
600.00	12.345	649.41	0.0015399	26.777	27.119	63.396	54.902	125.26	749.57	0.46172	75.667	0.50767	0.0083756	72.842	0.013728	45.188	48.242	98.600	59.939	165.40	457.33	8.6837	21.276	0.093664
605.00	13.167	635.53	0.0015735	27.337	27.710	64.338	55.038	132.22	716.21	0.53256	73.691	0.49822	0.0073112	79.669	0.012552	44.919	47.897	97.705	61.338	182.43	451.52	8.3076	21.690	0.10036
610.00	14.033	620.65	0.0016112	27.917	28.324	65.309	55.258	141.00	681.27	0.61660	71.655	0.48836	0.0062690	87.369	0.011446	44.613	47.506	96.755	62.831	203.84	445.11	7.9329	22.153	0.10847
615.00	14.943	604.55	0.0016541	28.522	28.968	66.315	55.593	152.54	644.33	0.71830	69.535	0.47808	0.0052528	96.150	0.010400	44.262	47.062	95.736	64.438	231.63	437.99	7.5564	22.681	0.11850
620.00	15.901	586.88	0.0017039	29.160	29.648	67.371	56.100	168.52	604.73	0.84473	67.297	0.46738	0.0042676	106.31	0.0094067	43.855	46.550	94.631	66.197	269.23	429.99	7.1743	23.295	0.13127
625.00	16.908	567.09	0.0017634	29.841	30.379	68.493	56.880	192.27	561.45	1.0074	64.884	0.45638	0.0033194	118.29	0.0084538	43.377	45.952	93.410	68.168	323.26	420.87	6.7808	24.027	0.14808
630.00	17.969	544.25	0.0018374	30.585	31.180	69.715	58.152	231.08	513.19	1.2251	62.202	0.44547	0.0024169	132.84	0.0075279	42.801	45.238	92.029	70.465	408.19	410.21	6.3669	24.933	0.17136
635.00	19.086	516.71	0.0019353	31.424	32.090	71.093	60.388	302.57	459.03	1.5265	59.094	0.43597	0.0015728	151.35	0.0066074	42.079	44.351	90.402	73.345	563.36	397.19	5.9159	26.121	0.20630
640.00	20.265	481.53	0.0020767	32.422	33.180	72.737	64.521	467.36	400.66	1.9542	55.307	0.43252	0.00080882	177.15	0.0056451	41.095	43.156	88.324	77.576	947.36	379.64	5.3854	27.860	0.26818