#Temperature (K)	Pressure (MPa)	Density (l, kg/m3)	Volume (l, m3/kg)	Internal Energy (l, kJ/mol)	Enthalpy (l, kJ/mol)	Entropy (l, J/mol*K)	Cv (l, J/mol*K)	Cp (l, J/mol*K)	Sound Spd. (l, m/s)	Joule-Thomson (l, K/MPa)	Viscosity (l, uPa*s)	Therm. Cond. (l, W/m*K)	Surf. Tension (l, N/m)	Density (v, kg/m3)	Volume (v, m3/kg)	Internal Energy (v, kJ/mol)	Enthalpy (v, kJ/mol)	Entropy (v, J/mol*K)	Cv (v, J/mol*K)	Cp (v, J/mol*K)	Sound Spd. (v, m/s)	Joule-Thomson (v, K/MPa)	Viscosity (v, uPa*s)	Therm. Cond. (v, W/m*K)
65.000	0.017404	859.60	0.0011633	-4.1194	-4.1188	69.569	32.591	56.121	976.36	-0.39833	282.07	0.16955	0.011761	0.91308	1.0952	1.3299	1.8639	161.61	21.059	29.788	163.20	38.268	4.5123	0.0058164
65.500	0.018959	857.52	0.0011662	-4.0913	-4.0907	69.999	32.495	56.147	971.27	-0.39665	274.79	0.16854	0.011641	0.98783	1.0123	1.3394	1.8770	161.11	21.074	29.830	163.75	37.651	4.5491	0.0058695
66.000	0.020623	855.44	0.0011690	-4.0633	-4.0626	70.426	32.398	56.174	966.18	-0.39493	267.79	0.16754	0.011522	1.0673	0.93698	1.3488	1.8901	160.62	21.090	29.875	164.30	37.052	4.5861	0.0059228
66.500	0.022401	853.35	0.0011719	-4.0352	-4.0345	70.849	32.303	56.202	961.11	-0.39316	261.05	0.16653	0.011403	1.1516	0.86837	1.3582	1.9031	160.14	21.106	29.921	164.84	36.471	4.6230	0.0059762
67.000	0.024300	851.25	0.0011747	-4.0071	-4.0063	71.270	32.207	56.231	956.04	-0.39135	254.55	0.16553	0.011284	1.2410	0.80580	1.3675	1.9160	159.66	21.123	29.969	165.37	35.907	4.6601	0.0060298
67.500	0.026325	849.14	0.0011777	-3.9790	-3.9781	71.688	32.112	56.262	950.98	-0.38950	248.30	0.16453	0.011165	1.3357	0.74867	1.3768	1.9289	159.20	21.140	30.018	165.89	35.358	4.6971	0.0060835
68.000	0.028481	847.03	0.0011806	-3.9509	-3.9500	72.103	32.018	56.293	945.93	-0.38759	242.27	0.16352	0.011047	1.4359	0.69642	1.3860	1.9416	158.74	21.158	30.070	166.41	34.825	4.7343	0.0061374
68.500	0.030775	844.91	0.0011836	-3.9228	-3.9218	72.515	31.924	56.326	940.87	-0.38564	236.46	0.16252	0.010929	1.5418	0.64858	1.3951	1.9543	158.30	21.177	30.124	166.93	34.307	4.7715	0.0061914
69.000	0.033213	842.79	0.0011865	-3.8946	-3.8935	72.924	31.831	56.360	935.83	-0.38364	230.85	0.16152	0.010811	1.6537	0.60472	1.4042	1.9668	157.86	21.196	30.180	167.43	33.803	4.8088	0.0062457
69.500	0.035801	840.66	0.0011895	-3.8665	-3.8653	73.331	31.738	56.396	930.78	-0.38158	225.44	0.16052	0.010693	1.7716	0.56445	1.4132	1.9793	157.43	21.215	30.239	167.93	33.313	4.8461	0.0063001
70.000	0.038545	838.51	0.0011926	-3.8383	-3.8370	73.735	31.646	56.433	925.74	-0.37947	220.22	0.15952	0.010576	1.8960	0.52743	1.4222	1.9917	157.00	21.236	30.299	168.42	32.837	4.8835	0.0063547
70.500	0.041451	836.37	0.0011956	-3.8101	-3.8087	74.136	31.554	56.472	920.70	-0.37731	215.18	0.15852	0.010459	2.0269	0.49336	1.4311	2.0040	156.59	21.256	30.362	168.91	32.373	4.9210	0.0064095
71.000	0.044527	834.21	0.0011987	-3.7819	-3.7804	74.535	31.463	56.512	915.66	-0.37508	210.32	0.15752	0.010342	2.1647	0.46196	1.4400	2.0162	156.18	21.278	30.427	169.39	31.922	4.9585	0.0064645
71.500	0.047779	832.05	0.0012019	-3.7537	-3.7521	74.931	31.373	56.554	910.62	-0.37280	205.61	0.15652	0.010225	2.3095	0.43300	1.4487	2.0283	155.78	21.300	30.495	169.86	31.482	4.9961	0.0065198
72.000	0.051213	829.88	0.0012050	-3.7255	-3.7237	75.325	31.283	56.597	905.58	-0.37046	201.07	0.15552	0.010109	2.4616	0.40625	1.4574	2.0403	155.38	21.323	30.565	170.32	31.054	5.0339	0.0065752
72.500	0.054837	827.70	0.0012082	-3.6972	-3.6953	75.716	31.194	56.643	900.53	-0.36806	196.68	0.15452	0.0099926	2.6212	0.38151	1.4661	2.0521	154.99	21.346	30.637	170.78	30.637	5.0717	0.0066310
73.000	0.058656	825.51	0.0012114	-3.6689	-3.6669	76.105	31.106	56.690	895.49	-0.36560	192.43	0.15352	0.0098768	2.7885	0.35862	1.4747	2.0639	154.61	21.370	30.712	171.23	30.231	5.1096	0.0066870
73.500	0.062680	823.31	0.0012146	-3.6406	-3.6385	76.491	31.019	56.739	890.44	-0.36306	188.31	0.15253	0.0097613	2.9639	0.33740	1.4832	2.0756	154.23	21.394	30.790	171.67	29.836	5.1476	0.0067432
74.000	0.066914	821.11	0.0012179	-3.6123	-3.6100	76.875	30.932	56.790	885.39	-0.36047	184.33	0.15153	0.0096460	3.1475	0.31772	1.4916	2.0871	153.86	21.420	30.870	172.10	29.450	5.1856	0.0067998
74.500	0.071366	818.89	0.0012212	-3.5840	-3.5815	77.257	30.846	56.844	880.34	-0.35780	180.48	0.15053	0.0095310	3.3396	0.29944	1.4999	2.0986	153.50	21.445	30.953	172.53	29.074	5.2238	0.0068566
75.000	0.076043	816.67	0.0012245	-3.5556	-3.5530	77.637	30.760	56.899	875.28	-0.35506	176.75	0.14954	0.0094163	3.5404	0.28245	1.5082	2.1099	153.14	21.472	31.039	172.95	28.707	5.2621	0.0069138
75.500	0.080952	814.44	0.0012278	-3.5272	-3.5244	78.014	30.676	56.956	870.22	-0.35224	173.13	0.14854	0.0093018	3.7503	0.26664	1.5164	2.1211	152.79	21.499	31.128	173.36	28.350	5.3005	0.0069712
76.000	0.086102	812.20	0.0012312	-3.4988	-3.4958	78.389	30.592	57.016	865.15	-0.34935	169.63	0.14754	0.0091876	3.9695	0.25192	1.5245	2.1321	152.44	21.527	31.220	173.77	28.001	5.3390	0.0070291
76.500	0.091499	809.95	0.0012346	-3.4704	-3.4672	78.762	30.509	57.078	860.08	-0.34638	166.23	0.14655	0.0090737	4.1982	0.23820	1.5325	2.1431	152.10	21.556	31.315	174.16	27.660	5.3777	0.0070872
77.000	0.097152	807.69	0.0012381	-3.4419	-3.4385	79.133	30.427	57.142	855.00	-0.34334	162.94	0.14555	0.0089601	4.4367	0.22539	1.5404	2.1539	151.76	21.585	31.413	174.55	27.328	5.4164	0.0071458
77.500	0.10307	805.43	0.0012416	-3.4134	-3.4098	79.502	30.345	57.209	849.91	-0.34020	159.74	0.14456	0.0088468	4.6853	0.21343	1.5483	2.1645	151.43	21.615	31.515	174.93	27.003	5.4553	0.0072047
78.000	0.10926	803.15	0.0012451	-3.3849	-3.3811	79.869	30.264	57.278	844.82	-0.33699	156.64	0.14356	0.0087337	4.9442	0.20226	1.5561	2.1751	151.10	21.646	31.620	175.31	26.686	5.4943	0.0072640
78.500	0.11572	800.86	0.0012487	-3.3564	-3.3523	80.234	30.184	57.350	839.72	-0.33368	153.63	0.14257	0.0086210	5.2138	0.19180	1.5637	2.1855	150.78	21.677	31.728	175.67	26.377	5.5334	0.0073238
79.000	0.12247	798.56	0.0012522	-3.3278	-3.3235	80.597	30.105	57.425	834.61	-0.33029	150.71	0.14158	0.0085085	5.4944	0.18200	1.5713	2.1957	150.46	21.709	31.839	176.03	26.074	5.5727	0.0073839
79.500	0.12952	796.26	0.0012559	-3.2992	-3.2946	80.958	30.026	57.502	829.49	-0.32680	147.87	0.14058	0.0083963	5.7861	0.17283	1.5788	2.2059	150.15	21.742	31.955	176.38	25.779	5.6121	0.0074446
80.000	0.13687	793.94	0.0012595	-3.2705	-3.2657	81.317	29.949	57.583	824.36	-0.32322	145.11	0.13959	0.0082844	6.0894	0.16422	1.5862	2.2158	149.84	21.776	32.074	176.72	25.490	5.6517	0.0075057
80.500	0.14453	791.61	0.0012633	-3.2419	-3.2368	81.674	29.872	57.666	819.22	-0.31953	142.43	0.13859	0.0081729	6.4045	0.15614	1.5935	2.2257	149.53	21.810	32.197	177.05	25.207	5.6914	0.0075673
81.000	0.15251	789.27	0.0012670	-3.2132	-3.2078	82.030	29.795	57.752	814.07	-0.31574	139.82	0.13760	0.0080616	6.7317	0.14855	1.6007	2.2353	149.23	21.845	32.323	177.38	24.931	5.7313	0.0076295
81.500	0.16082	786.92	0.0012708	-3.1844	-3.1787	82.384	29.720	57.842	808.91	-0.31185	137.28	0.13661	0.0079506	7.0713	0.14142	1.6078	2.2449	148.93	21.881	32.454	177.70	24.661	5.7713	0.0076922
82.000	0.16947	784.56	0.0012746	-3.1557	-3.1496	82.736	29.645	57.934	803.74	-0.30785	134.81	0.13562	0.0078399	7.4237	0.13470	1.6147	2.2542	148.64	21.918	32.589	178.00	24.397	5.8115	0.0077554
82.500	0.17846	782.18	0.0012785	-3.1268	-3.1205	83.087	29.572	58.031	798.56	-0.30374	132.41	0.13462	0.0077295	7.7892	0.12838	1.6216	2.2634	148.35	21.956	32.729	178.30	24.138	5.8519	0.0078193
83.000	0.18780	779.80	0.0012824	-3.0980	-3.0913	83.436	29.499	58.130	793.36	-0.29951	130.07	0.13363	0.0076195	8.1680	0.12243	1.6284	2.2725	148.06	21.994	32.873	178.60	23.884	5.8924	0.0078837
83.500	0.19750	777.40	0.0012863	-3.0691	-3.0620	83.783	29.427	58.233	788.15	-0.29516	127.80	0.13264	0.0075097	8.5606	0.11681	1.6351	2.2814	147.78	22.034	33.021	178.88	23.637	5.9331	0.0079488
84.000	0.20757	774.99	0.0012903	-3.0402	-3.0327	84.129	29.355	58.340	782.93	-0.29068	125.58	0.13165	0.0074003	8.9672	0.11152	1.6416	2.2901	147.49	22.074	33.174	179.16	23.394	5.9741	0.0080146
84.500	0.21803	772.57	0.0012944	-3.0112	-3.0033	84.473	29.285	58.451	777.69	-0.28608	123.41	0.13066	0.0072912	9.3883	0.10652	1.6480	2.2986	147.22	22.115	33.333	179.42	23.156	6.0152	0.0080811
85.000	0.22886	770.13	0.0012985	-2.9822	-2.9739	84.815	29.215	58.566	772.44	-0.28135	121.31	0.12966	0.0071824	9.8241	0.10179	1.6544	2.3070	146.94	22.157	33.496	179.68	22.923	6.0565	0.0081483
85.500	0.24010	767.69	0.0013026	-2.9531	-2.9444	85.157	29.146	58.685	767.17	-0.27648	119.25	0.12868	0.0070739	10.275	0.097322	1.6606	2.3152	146.67	22.200	33.664	179.93	22.694	6.0980	0.0082163
86.000	0.25174	765.23	0.0013068	-2.9240	-2.9148	85.496	29.078	58.808	761.89	-0.27146	117.25	0.12769	0.0069658	10.742	0.093096	1.6666	2.3232	146.40	22.244	33.838	180.17	22.470	6.1397	0.0082850
86.500	0.26379	762.75	0.0013110	-2.8949	-2.8852	85.835	29.011	58.936	756.59	-0.26630	115.29	0.12670	0.0068580	11.224	0.089095	1.6726	2.3310	146.14	22.289	34.018	180.40	22.250	6.1816	0.0083546
87.000	0.27626	760.26	0.0013153	-2.8657	-2.8555	86.172	28.944	59.068	751.28	-0.26099	113.38	0.12572	0.0067505	11.723	0.085305	1.6784	2.3386	145.87	22.334	34.204	180.63	22.035	6.2238	0.0084251
87.500	0.28916	757.76	0.0013197	-2.8364	-2.8257	86.507	28.879	59.206	745.95	-0.25553	111.52	0.12473	0.0066434	12.238	0.081713	1.6841	2.3461	145.61	22.381	34.395	180.84	21.823	6.2662	0.0084965
88.000	0.30251	755.24	0.0013241	-2.8071	-2.7959	86.842	28.814	59.348	740.60	-0.24990	109.70	0.12375	0.0065366	12.770	0.078307	1.6897	2.3533	145.36	22.429	34.593	181.05	21.616	6.3088	0.0085688
88.500	0.31630	752.71	0.0013285	-2.7777	-2.7660	87.175	28.750	59.495	735.23	-0.24410	107.92	0.12276	0.0064301	13.320	0.075074	1.6952	2.3604	145.10	22.478	34.797	181.25	21.412	6.3516	0.0086420
89.000	0.33055	750.16	0.0013330	-2.7483	-2.7360	87.507	28.687	59.647	729.84	-0.23813	106.18	0.12177	0.0063240	13.888	0.072005	1.7005	2.3672	144.85	22.528	35.008	181.43	21.212	6.3948	0.0087163
89.500	0.34527	747.60	0.0013376	-2.7189	-2.7059	87.838	28.625	59.806	724.44	-0.23198	104.48	0.12079	0.0062183	14.474	0.069089	1.7056	2.3739	144.59	22.579	35.226	181.61	21.016	6.4382	0.0087917
90.000	0.36046	745.02	0.0013422	-2.6893	-2.6758	88.167	28.564	59.969	719.01	-0.22564	102.82	0.11980	0.0061129	15.079	0.066317	1.7107	2.3803	144.35	22.631	35.451	181.78	20.823	6.4818	0.0088682
90.500	0.37613	742.43	0.0013469	-2.6597	-2.6455	88.496	28.503	60.139	713.56	-0.21911	101.19	0.11882	0.0060078	15.703	0.063681	1.7155	2.3865	144.10	22.684	35.684	181.95	20.633	6.5257	0.0089458
91.000	0.39230	739.82	0.0013517	-2.6301	-2.6152	88.823	28.444	60.315	708.09	-0.21237	99.602	0.11783	0.0059031	16.347	0.061172	1.7203	2.3925	143.85	22.738	35.925	182.10	20.446	6.5700	0.0090247
91.500	0.40898	737.19	0.0013565	-2.6003	-2.5848	89.149	28.385	60.498	702.60	-0.20543	98.046	0.11685	0.0057988	17.011	0.058784	1.7249	2.3983	143.61	22.793	36.174	182.24	20.263	6.6145	0.0091048
92.000	0.42616	734.54	0.0013614	-2.5705	-2.5543	89.475	28.327	60.687	697.09	-0.19827	96.522	0.11586	0.0056949	17.696	0.056509	1.7293	2.4039	143.37	22.850	36.431	182.38	20.082	6.6593	0.0091862
92.500	0.44386	731.88	0.0013664	-2.5407	-2.5237	89.799	28.271	60.884	691.55	-0.19088	95.030	0.11488	0.0055913	18.403	0.054340	1.7336	2.4092	143.13	22.908	36.697	182.50	19.905	6.7045	0.0092690
93.000	0.46210	729.19	0.0013714	-2.5107	-2.4930	90.123	28.215	61.088	685.99	-0.18326	93.568	0.11389	0.0054881	19.131	0.052272	1.7377	2.4143	142.89	22.967	36.973	182.62	19.730	6.7499	0.0093533
93.500	0.48087	726.49	0.0013765	-2.4807	-2.4622	90.445	28.160	61.299	680.41	-0.17540	92.136	0.11291	0.0053853	19.881	0.050300	1.7416	2.4192	142.65	23.028	37.258	182.72	19.558	6.7957	0.0094390
94.000	0.50020	723.77	0.0013817	-2.4506	-2.4313	90.767	28.106	61.519	674.80	-0.16728	90.731	0.11192	0.0052828	20.654	0.048416	1.7454	2.4238	142.42	23.089	37.554	182.82	19.388	6.8419	0.0095263
94.500	0.52008	721.03	0.0013869	-2.4205	-2.4003	91.088	28.053	61.747	669.16	-0.15890	89.354	0.11094	0.0051808	21.451	0.046618	1.7490	2.4282	142.18	23.152	37.860	182.91	19.221	6.8884	0.0096153
95.000	0.54052	718.26	0.0013922	-2.3902	-2.3691	91.408	28.001	61.983	663.50	-0.15025	88.004	0.10995	0.0050791	22.272	0.044900	1.7525	2.4324	141.95	23.217	38.177	182.99	19.057	6.9353	0.0097060
95.500	0.56155	715.48	0.0013977	-2.3599	-2.3379	91.727	27.950	62.229	657.81	-0.14131	86.678	0.10897	0.0049779	23.118	0.043257	1.7558	2.4362	141.72	23.283	38.506	183.06	18.895	6.9826	0.0097984
96.000	0.58316	712.67	0.0014032	-2.3294	-2.3065	92.046	27.900	62.484	652.09	-0.13207	85.378	0.10799	0.0048771	23.989	0.041686	1.7588	2.4398	141.49	23.350	38.847	183.12	18.734	7.0303	0.0098927
96.500	0.60536	709.84	0.0014088	-2.2989	-2.2750	92.364	27.851	62.750	646.35	-0.12252	84.101	0.10700	0.0047766	24.886	0.040183	1.7617	2.4432	141.26	23.419	39.200	183.17	18.576	7.0785	0.0099890
97.000	0.62817	706.99	0.0014144	-2.2683	-2.2434	92.682	27.804	63.026	640.57	-0.11264	82.847	0.10602	0.0046766	25.810	0.038745	1.7645	2.4463	141.03	23.489	39.568	183.21	18.421	7.1270	0.010087
97.500	0.65160	704.12	0.0014202	-2.2376	-2.2117	92.998	27.757	63.313	634.76	-0.10243	81.614	0.10503	0.0045770	26.762	0.037367	1.7670	2.4491	140.80	23.561	39.949	183.24	18.267	7.1760	0.010188
98.000	0.67565	701.22	0.0014261	-2.2068	-2.1798	93.315	27.712	63.611	628.92	-0.091867	80.403	0.10405	0.0044779	27.742	0.036047	1.7693	2.4516	140.57	23.635	40.345	183.26	18.114	7.2255	0.010290
98.500	0.70033	698.29	0.0014321	-2.1759	-2.1478	93.631	27.667	63.922	623.05	-0.080933	79.213	0.10306	0.0043791	28.751	0.034782	1.7714	2.4538	140.35	23.710	40.757	183.27	17.964	7.2755	0.010396
99.000	0.72566	695.34	0.0014381	-2.1449	-2.1156	93.946	27.624	64.246	617.14	-0.069613	78.042	0.10208	0.0042808	29.790	0.033569	1.7733	2.4557	140.12	23.787	41.185	183.28	17.815	7.3260	0.010503
99.500	0.75163	692.36	0.0014443	-2.1137	-2.0833	94.261	27.582	64.583	611.20	-0.057890	76.891	0.10110	0.0041830	30.860	0.032405	1.7750	2.4573	139.90	23.866	41.630	183.27	17.668	7.3770	0.010613
100.00	0.77827	689.35	0.0014506	-2.0825	-2.0508	94.576	27.542	64.935	605.23	-0.045743	75.758	0.10011	0.0040856	31.961	0.031288	1.7765	2.4586	139.67	23.946	42.094	183.25	17.523	7.4285	0.010726
100.50	0.80559	686.32	0.0014571	-2.0511	-2.0182	94.890	27.502	65.301	599.22	-0.033153	74.642	0.099128	0.0039886	33.096	0.030216	1.7777	2.4596	139.45	24.029	42.578	183.22	17.378	7.4807	0.010841
101.00	0.83358	683.25	0.0014636	-2.0196	-1.9854	95.204	27.464	65.684	593.17	-0.020100	73.543	0.098144	0.0038921	34.264	0.029186	1.7788	2.4603	139.22	24.113	43.081	183.18	17.236	7.5334	0.010960
101.50	0.86227	680.15	0.0014703	-1.9880	-1.9525	95.518	27.428	66.083	587.08	-0.0065585	72.461	0.097160	0.0037961	35.466	0.028196	1.7795	2.4606	139.00	24.199	43.607	183.14	17.094	7.5868	0.011082
102.00	0.89166	677.03	0.0014770	-1.9562	-1.9193	95.832	27.392	66.500	580.96	0.0074941	71.395	0.096176	0.0037006	36.705	0.027244	1.7801	2.4606	138.77	24.288	44.155	183.08	16.953	7.6408	0.011207
102.50	0.92176	673.86	0.0014840	-1.9243	-1.8860	96.146	27.359	66.936	574.79	0.022084	70.343	0.095192	0.0036055	37.981	0.026329	1.7804	2.4602	138.55	24.378	44.728	183.01	16.814	7.6955	0.011335
103.00	0.95259	670.67	0.0014910	-1.8923	-1.8525	96.459	27.327	67.392	568.58	0.037239	69.306	0.094208	0.0035109	39.294	0.025449	1.7804	2.4595	138.32	24.471	45.326	182.93	16.676	7.7509	0.011467
103.50	0.98414	667.44	0.0014983	-1.8600	-1.8187	96.773	27.296	67.869	562.33	0.052989	68.283	0.093224	0.0034169	40.648	0.024602	1.7802	2.4584	138.10	24.565	45.952	182.84	16.538	7.8071	0.011603
104.00	1.0164	664.17	0.0015056	-1.8277	-1.7848	97.087	27.267	68.369	556.03	0.069366	67.274	0.092240	0.0033233	42.042	0.023786	1.7797	2.4569	137.87	24.661	46.607	182.74	16.402	7.8640	0.011743
104.50	1.0495	660.86	0.0015132	-1.7952	-1.7507	97.401	27.240	68.893	549.69	0.086403	66.277	0.091256	0.0032303	43.478	0.023000	1.7789	2.4551	137.65	24.760	47.293	182.63	16.267	7.9218	0.011887
105.00	1.0833	657.52	0.0015209	-1.7625	-1.7163	97.715	27.214	69.443	543.30	0.10414	65.292	0.090272	0.0031378	44.959	0.022243	1.7778	2.4528	137.42	24.860	48.012	182.51	16.132	7.9804	0.012035
105.50	1.1179	654.13	0.0015288	-1.7296	-1.6817	98.030	27.191	70.020	536.86	0.12261	64.319	0.089288	0.0030458	46.484	0.021513	1.7764	2.4501	137.19	24.963	48.767	182.38	15.998	8.0400	0.012188
106.00	1.1533	650.70	0.0015368	-1.6965	-1.6469	98.345	27.169	70.627	530.37	0.14186	63.357	0.088305	0.0029544	48.057	0.020809	1.7747	2.4470	136.97	25.068	49.561	182.24	15.865	8.1005	0.012347
106.50	1.1894	647.22	0.0015451	-1.6633	-1.6118	98.660	27.150	71.265	523.83	0.16193	62.405	0.087321	0.0028635	49.679	0.020129	1.7727	2.4434	136.74	25.175	50.396	182.09	15.732	8.1620	0.012510
107.00	1.2264	643.70	0.0015535	-1.6298	-1.5765	98.977	27.133	71.937	517.24	0.18288	61.464	0.086337	0.0027732	51.351	0.019474	1.7703	2.4394	136.51	25.284	51.276	181.93	15.600	8.2245	0.012679
107.50	1.2642	640.13	0.0015622	-1.5962	-1.5409	99.293	27.118	72.646	510.59	0.20475	60.532	0.085354	0.0026835	53.077	0.018841	1.7676	2.4349	136.28	25.396	52.205	181.76	15.469	8.2882	0.012854
108.00	1.3028	636.50	0.0015711	-1.5623	-1.5050	99.611	27.105	73.394	503.88	0.22761	59.609	0.084370	0.0025943	54.857	0.018229	1.7646	2.4299	136.04	25.511	53.187	181.58	15.338	8.3531	0.013036
108.50	1.3423	632.83	0.0015802	-1.5282	-1.4688	99.929	27.095	74.184	497.11	0.25152	58.694	0.083387	0.0025058	56.695	0.017638	1.7611	2.4244	135.81	25.629	54.227	181.39	15.206	8.4193	0.013224
109.00	1.3826	629.10	0.0015896	-1.4938	-1.4323	100.25	27.088	75.021	490.29	0.27654	57.786	0.082404	0.0024179	58.592	0.017067	1.7573	2.4183	135.57	25.750	55.332	181.19	15.075	8.4867	0.013419
109.50	1.4238	625.31	0.0015992	-1.4592	-1.3954	100.57	27.083	75.908	483.40	0.30275	56.886	0.081420	0.0023305	60.553	0.016514	1.7530	2.4117	135.34	25.876	56.506	180.98	14.944	8.5556	0.013622
110.00	1.4658	621.45	0.0016091	-1.4243	-1.3583	100.89	27.082	76.849	476.44	0.33023	55.993	0.080437	0.0022439	62.579	0.015980	1.7484	2.4045	135.10	26.006	57.758	180.76	14.812	8.6260	0.013834
110.50	1.5087	617.54	0.0016193	-1.3892	-1.3207	101.21	27.084	77.849	469.42	0.35907	55.106	0.079454	0.0021579	64.673	0.015462	1.7433	2.3968	134.86	26.142	59.096	180.53	14.679	8.6980	0.014054
111.00	1.5526	613.55	0.0016299	-1.3537	-1.2828	101.54	27.089	78.914	462.32	0.38936	54.224	0.078472	0.0020725	66.840	0.014961	1.7377	2.3884	134.61	26.284	60.528	180.28	14.546	8.7716	0.014284
111.50	1.5973	609.50	0.0016407	-1.3179	-1.2445	101.86	27.098	80.051	455.16	0.42122	53.347	0.077489	0.0019879	69.083	0.014475	1.7316	2.3793	134.36	26.432	62.066	180.02	14.411	8.8471	0.014524
112.00	1.6430	605.36	0.0016519	-1.2818	-1.2058	102.19	27.110	81.266	447.92	0.45475	52.475	0.076507	0.0019040	71.405	0.014005	1.7250	2.3696	134.11	26.588	63.720	179.75	14.275	8.9246	0.014775
112.50	1.6896	601.15	0.0016635	-1.2454	-1.1667	102.52	27.127	82.568	440.59	0.49010	51.606	0.075526	0.0018208	73.812	0.013548	1.7179	2.3591	133.86	26.752	65.505	179.46	14.137	9.0042	0.015039
113.00	1.7371	596.85	0.0016755	-1.2086	-1.1271	102.85	27.149	83.966	433.19	0.52741	50.740	0.074544	0.0017383	76.307	0.013105	1.7102	2.3479	133.60	26.924	67.435	179.15	13.996	9.0860	0.015315
113.50	1.7856	592.47	0.0016879	-1.1714	-1.0869	103.19	27.176	85.471	425.70	0.56683	49.876	0.073564	0.0016566	78.897	0.012675	1.7019	2.3359	133.34	27.107	69.529	178.83	13.854	9.1702	0.015607
114.00	1.8351	587.98	0.0017007	-1.1337	-1.0463	103.52	27.208	87.097	418.12	0.60855	49.014	0.072583	0.0015757	81.587	0.012257	1.6929	2.3230	133.08	27.300	71.806	178.49	13.709	9.2570	0.015913
114.50	1.8856	583.40	0.0017141	-1.0957	-1.0051	103.86	27.245	88.858	410.45	0.65278	48.152	0.071604	0.0014956	84.384	0.011851	1.6833	2.3093	132.81	27.505	74.291	178.13	13.561	9.3467	0.016237
115.00	1.9370	578.70	0.0017280	-1.0571	-0.96336	104.20	27.290	90.771	402.67	0.69974	47.290	0.070626	0.0014163	87.294	0.011456	1.6730	2.2946	132.53	27.721	77.010	177.75	13.409	9.4395	0.016580
115.50	1.9895	573.89	0.0017425	-1.0181	-0.92095	104.55	27.341	92.858	394.79	0.74970	46.428	0.069649	0.0013379	90.326	0.011071	1.6619	2.2789	132.25	27.950	79.997	177.35	13.255	9.5356	0.016944
116.00	2.0431	568.96	0.0017576	-0.97846	-0.87787	104.90	27.400	95.144	386.80	0.80295	45.563	0.068673	0.0012604	93.489	0.010696	1.6500	2.2622	131.97	28.193	83.292	176.93	13.096	9.6354	0.017331
116.50	2.0976	563.88	0.0017734	-0.93826	-0.83405	105.25	27.467	97.658	378.68	0.85984	44.696	0.067699	0.0011838	96.792	0.010331	1.6372	2.2443	131.68	28.451	86.941	176.48	12.934	9.7392	0.017744
117.00	2.1533	558.66	0.0017900	-0.89741	-0.78944	105.61	27.545	100.44	370.43	0.92076	43.824	0.066728	0.0011082	100.25	0.0099753	1.6234	2.2251	131.38	28.723	91.003	176.01	12.767	9.8474	0.018186
117.50	2.2100	553.28	0.0018074	-0.85587	-0.74398	105.97	27.633	103.53	362.04	0.98619	42.948	0.065760	0.0010336	103.87	0.0096275	1.6086	2.2047	131.07	29.013	95.550	175.52	12.595	9.9606	0.018660
118.00	2.2678	547.73	0.0018257	-0.81357	-0.69758	106.34	27.734	106.99	353.49	1.0566	42.064	0.064795	0.00096006	107.67	0.0092875	1.5927	2.1828	130.75	29.320	100.67	175.00	12.418	10.079	0.019172
118.50	2.3268	541.98	0.0018451	-0.77042	-0.65016	106.72	27.849	110.89	344.77	1.1328	41.172	0.063836	0.00088760	111.67	0.0089549	1.5756	2.1593	130.43	29.647	106.48	174.45	12.235	10.204	0.019726
119.00	2.3869	536.02	0.0018656	-0.72635	-0.60161	107.10	27.981	115.31	335.85	1.2154	40.270	0.062883	0.00081630	115.89	0.0086288	1.5572	2.1341	130.09	29.997	113.12	173.87	12.045	10.336	0.020329
119.50	2.4481	529.82	0.0018874	-0.68125	-0.55181	107.49	28.133	120.39	326.71	1.3053	39.355	0.061939	0.00074620	120.35	0.0083089	1.5372	2.1070	129.74	30.371	120.79	173.26	11.848	10.475	0.020989
120.00	2.5106	523.36	0.0019107	-0.63498	-0.50060	107.89	28.310	126.27	317.33	1.4037	38.425	0.061006	0.00067738	125.09	0.0079943	1.5156	2.0778	129.38	30.773	129.73	172.61	11.643	10.624	0.021715
120.50	2.5742	516.59	0.0019358	-0.58741	-0.44781	108.30	28.515	133.18	307.67	1.5119	37.478	0.060090	0.00060992	130.13	0.0076845	1.4921	2.0462	129.00	31.209	140.29	171.92	11.428	10.782	0.022521
121.00	2.6391	509.48	0.0019628	-0.53833	-0.39322	108.73	28.755	141.40	297.68	1.6317	36.509	0.059196	0.00054390	135.53	0.0073785	1.4665	2.0119	128.60	31.683	152.95	171.17	11.203	10.953	0.023424
121.50	2.7053	501.96	0.0019922	-0.48751	-0.33653	109.16	29.041	151.38	287.33	1.7652	35.515	0.058334	0.00047943	141.33	0.0070754	1.4383	1.9745	128.18	32.204	168.39	170.37	10.965	11.138	0.024445
122.00	2.7727	493.97	0.0020244	-0.43464	-0.27739	109.62	29.383	163.75	276.54	1.9152	34.489	0.057518	0.00041663	147.62	0.0067741	1.4073	1.9335	127.74	32.784	187.64	169.49	10.711	11.340	0.025616
122.50	2.8415	485.41	0.0020601	-0.37930	-0.21531	110.09	29.800	179.50	265.24	2.0855	33.424	0.056769	0.00035565	154.48	0.0064733	1.3729	1.8882	127.26	33.436	212.28	168.53	10.441	11.563	0.026980
123.00	2.9116	476.14	0.0021002	-0.32093	-0.14962	110.59	30.317	200.28	253.32	2.2811	32.310	0.056121	0.00029667	162.05	0.0061711	1.3343	1.8376	126.75	34.185	244.90	167.43	10.148	11.813	0.028604
123.50	2.9832	465.99	0.0021460	-0.25871	-0.079372	111.13	30.971	228.97	240.64	2.5091	31.134	0.055626	0.00023993	170.50	0.0058651	1.2903	1.7805	126.19	35.062	290.08	166.17	9.8287	12.096	0.030589
124.00	3.0562	454.65	0.0021995	-0.19140	-0.0030925	111.71	31.826	271.20	227.00	2.7802	29.873	0.055372	0.00018574	180.13	0.0055515	1.2395	1.7147	125.56	36.125	356.63	164.67	9.4745	12.426	0.033113
124.50	3.1307	441.64	0.0022643	-0.11695	0.081634	112.35	32.991	339.48	212.11	3.1110	28.495	0.055521	0.00013452	191.40	0.0052247	1.1790	1.6372	124.85	37.467	464.00	162.79	9.0731	12.823	0.036509
125.00	3.2069	426.08	0.0023470	-0.031475	0.17937	113.10	34.680	468.31	195.48	3.5308	26.935	0.056435	8.6947e-05	205.18	0.0048737	1.1039	1.5417	124.00	39.278	665.12	160.26	8.6030	13.326	0.041535
