# Temperature [K]	Pressure [MPa] 
217.00	            0.52722	
219.97	            0.59842	
222.94	            0.67663	
225.91	            0.76227	
228.89	            0.85577	
231.86	            0.95756	
234.83	            1.0681	
237.80	            1.1878	
240.77	            1.3171	
243.74	            1.4565	
246.72	            1.6065	
249.69	            1.7675	
252.66	            1.9400	
255.63	            2.1246	
258.60	            2.3217	
261.57	            2.5318	
264.55	            2.7556	
267.52	            2.9934	
270.49	            3.2460	
273.46	            3.5140	
276.43	            3.7979	
279.41	            4.0985	
282.38	            4.4165	
285.35	            4.7527	
288.32	            5.1080	
291.29	            5.4835	
294.26	            5.8803	
297.24	            6.3001	
300.21	            6.7449	
303.18	            7.2184	
306.15	            7.7225	
309.12	            8.2343	
312.09	            8.7500	
315.07	            9.2679	
318.04	            9.7872	
321.01	            10.308	
323.98	            10.830	
326.95	            11.353	
329.92	            11.876	
332.90	            12.400	
335.87	            12.925	
338.84	            13.450	
341.81	            13.975	
344.78	            14.500	
347.75	            15.025	
350.73	            15.550	
353.70	            16.075	
356.67	            16.601	
359.64	            17.126	
362.61	            17.651	
365.58	            18.176	
368.56	            18.701	
371.53	            19.226	
374.50	            19.751	
377.47	            20.275	
380.44	            20.800	
383.41	            21.324	
386.39	            21.848	
389.36	            22.371	
392.33	            22.895	
395.30	            23.418	
398.27	            23.941	
401.24	            24.463	
404.22	            24.986	
407.19	            25.508	
410.16	            26.029	
413.13	            26.551	
416.10	            27.072	
419.07	            27.592	
422.05	            28.113	
425.02	            28.633	
427.99	            29.153	
430.96	            29.672	
433.93	            30.191	
436.90	            30.710	
439.88	            31.229	
442.85	            31.747	
445.82	            32.265	
448.79	            32.782	
451.76	            33.299	
454.73	            33.816	
457.71	            34.332	
460.68	            34.849	
463.65	            35.364	
466.62	            35.880	
469.59	            36.395	
472.56	            36.910	
475.54	            37.424	
478.51	            37.938	
481.48	            38.452	
484.45	            38.965	
487.42	            39.478	
490.39	            39.991	
493.37	            40.503	
496.34	            41.016	
499.31	            41.527	
502.28	            42.039	
505.25	            42.550	
508.22	            43.060	
511.20	            43.571	
514.17	            44.081	
517.14	            44.591	
520.11	            45.100	
523.08	            45.609	
526.05	            46.118	
529.03	            46.626	
532.00	            47.134	
534.97	            47.642	
537.94	            48.149	
540.91	            48.656	
543.88	            49.163	
546.86	            49.670	
549.83	            50.176	
552.80	            50.681	
555.77	            51.187	
558.74	            51.692	
561.71	            52.197	
564.69	            52.701	
567.66	            53.206	
570.63	            53.710	
573.60	            54.213	
576.57	            54.716	
579.54	            55.219	
582.52	            55.722	
585.49	            56.224	
588.46	            56.726	
591.43	            57.228	
594.40	            57.730	
597.37	            58.231	
600.35	            58.732	
603.32	            59.232	
606.29	            59.732	
609.26	            60.232	
612.23	            60.732	
615.20	            61.231	
618.18	            61.730	
621.15	            62.229	
624.12	            62.727	
627.09	            63.226	
630.06	            63.723	
633.03	            64.221	
636.01	            64.718	
638.98	            65.215	
641.95	            65.712	
644.92	            66.208	
647.89	            66.705	
650.86	            67.201	
653.84	            67.696	
656.81	            68.191	
659.78	            68.686	
662.75	            69.181	
665.72	            69.676	
668.69	            70.170	
671.67	            70.664	
674.64	            71.157	
677.61	            71.651	
680.58	            72.144	
683.55	            72.637	
686.52	            73.129	
689.50	            73.622	
692.47	            74.114	
695.44	            74.606	
698.41	            75.097	
701.38	            75.588	
704.35	            76.079	
707.33	            76.570	
710.30	            77.061	
713.27	            77.551	
716.24	            78.041	
719.21	            78.530	
722.18	            79.020	
725.16	            79.509	
728.13	            79.998	
731.10	            80.487	
734.07	            80.975	
737.04	            81.463	
740.01	            81.951	
742.99	            82.439	
745.96	            82.926	
748.93	            83.414	
751.90	            83.901	
754.87	            84.387	
757.84	            84.874	
760.82	            85.360	
763.79	            85.846	
766.76	            86.332	
769.73	            86.817	
772.70	            87.303	
775.67	            87.788	
778.65	            88.273	
781.62	            88.757	
784.59	            89.241	
787.56	            89.726	
790.53	            90.209	
793.50	            90.693	
796.48	            91.177	
799.45	            91.660	
802.42	            92.143	
805.39	            92.625	
808.36	            93.108	
811.33	            93.590	
814.31	            94.072	
817.28	            94.554	
820.25	            95.036	
823.22	            95.517	
826.19	            95.998	
829.16	            96.479	
832.14	            96.960	
835.11	            97.441	
838.08	            97.921	
841.05	            98.401	
844.02	            98.881	
846.99	            99.361	
849.97	            99.840	
852.94	            100.32	
855.91	            100.80	
858.88	            101.28	
861.85	            101.76	
864.82	            102.23	
867.80	            102.71	
870.77	            103.19	
873.74	            103.67	
876.71	            104.15	
879.68	            104.62	
882.65	            105.10	
885.63	            105.58	
888.60	            106.05	
891.57	            106.53	
894.54	            107.01	
897.51	            107.48	
900.48	            107.96	
903.46	            108.44	
906.43	            108.91	
909.40	            109.39	
912.37	            109.86	
915.34	            110.34	
918.31	            110.81	
921.29	            111.29	
924.26	            111.76	
927.23	            112.23	
930.20	            112.71	
933.17	            113.18	
936.14	            113.66	
939.12	            114.13	
942.09	            114.60	
945.06	            115.08	
948.03	            115.55	
951.00	            116.02	
953.97	            116.49	
956.95	            116.97	
959.92	            117.44	
962.89	            117.91	
965.86	            118.38	
968.83	            118.85	
971.80	            119.33	
974.78	            119.80	
977.75	            120.27	
980.72	            120.74	
983.69	            121.21	
986.66	            121.68	
989.63	            122.15	
992.61	            122.62	
995.58	            123.09	
998.55	            123.56	
1001.5	            124.03	
1004.5	            124.50	
1007.5	            124.97	
1010.4	            125.44	
1013.4	            125.91	
1016.4	            126.38	
1019.4	            126.85	
1022.3	            127.31	
1025.3	            127.78	
1028.3	            128.25	
1031.2	            128.72	
1034.2	            129.19	
1037.2	            129.66	
1040.2	            130.12	
1043.1	            130.59	
1046.1	            131.06	
1049.1	            131.52	
1052.0	            131.99	
1055.0	            132.46	
1058.0	            132.92	
1061.0	            133.39	
1063.9	            133.86	
1066.9	            134.32	
1069.9	            134.79	
1072.8	            135.26	
1075.8	            135.72	
1078.8	            136.19	
1081.8	            136.65	
1084.7	            137.12	
1087.7	            137.58	
1090.7	            138.05	
1093.6	            138.51	
1096.6	            138.98	
1099.6	            139.44	
1102.6	            139.90	
1105.5	            140.37	
1108.5	            140.83	
1111.5	            141.30	
1114.4	            141.76	
1117.4	            142.22	
1120.4	            142.69	
1123.4	            143.15	
1126.3	            143.61	
1129.3	            144.08	
1132.3	            144.54	
1135.2	            145.00	
1138.2	            145.46	
1141.2	            145.93	
1144.2	            146.39	
1147.1	            146.85	
1150.1	            147.31	
1153.1	            147.77	
1156.0	            148.24	
1159.0	            148.70	
1162.0	            149.16	
1165.0	            149.62	
1167.9	            150.08	
1170.9	            150.54	
1173.9	            151.00	
1176.8	            151.46	
1179.8	            151.92	
1182.8	            152.38	
1185.8	            152.84	
1188.7	            153.30	
1191.7	            153.76	
1194.7	            154.22	
1197.7	            154.68	
1200.6	            155.14	
1203.6	            155.60	
1206.6	            156.06	
1209.5	            156.52	
1212.5	            156.98	
1215.5	            157.44	
1218.5	            157.90	
1221.4	            158.36	
1224.4	            158.81	
1227.4	            159.27	
1230.3	            159.73	
1233.3	            160.19	
1236.3	            160.65	
1239.3	            161.10	
1242.2	            161.56	
1245.2	            162.02	
1248.2	            162.48	
1251.1	            162.93	
1254.1	            163.39	
1257.1	            163.85	
1260.1	            164.31	
1263.0	            164.76	
1266.0	            165.22	
1269.0	            165.68	
1271.9	            166.13	
1274.9	            166.59	
1277.9	            167.04	
1280.9	            167.50	
1283.8	            167.96	
1286.8	            168.41	
1289.8	            168.87	
1292.7	            169.32	
1295.7	            169.78	
1298.7	            170.23	
1301.7	            170.69	
1304.6	            171.14	
1307.6	            171.60	
1310.6	            172.05	
1313.5	            172.51	
1316.5	            172.96	
1319.5	            173.42	
1322.5	            173.87	
1325.4	            174.33	
1328.4	            174.78	
1331.4	            175.23	
1334.3	            175.69	
1337.3	            176.14	
1340.3	            176.60	
1343.3	            177.05	
1346.2	            177.50	
1349.2	            177.96	
1352.2	            178.41	
1355.1	            178.86	
1358.1	            179.32	
1361.1	            179.77	
1364.1	            180.22	
1367.0	            180.67	
1370.0	            181.13	
1373.0	            181.58	
1375.9	            182.03	
1378.9	            182.48	
1381.9	            182.94	
1384.9	            183.39	
1387.8	            183.84	
1390.8	            184.29	
1393.8	            184.74	
1396.8	            185.19	
1399.7	            185.65	
1402.7	            186.10	
1405.7	            186.55	
1408.6	            187.00	
1411.6	            187.45	
1414.6	            187.90	
1417.6	            188.35	
1420.5	            188.80	
1423.5	            189.25	
1426.5	            189.70	
1429.4	            190.15	
1432.4	            190.61	
1435.4	            191.06	
1438.4	            191.51	
1441.3	            191.96	
1444.3	            192.41	
1447.3	            192.86	
1450.2	            193.30	
1453.2	            193.75	
1456.2	            194.20	
1459.2	            194.65	
1462.1	            195.10	
1465.1	            195.55	
1468.1	            196.00	
1471.0	            196.45	
1474.0	            196.90	
1477.0	            197.35	
1480.0	            197.80	
1482.9	            198.24	
1485.9	            198.69	
1488.9	            199.14	
1491.8	            199.59	
1494.8	            200.04	
1497.8	            200.49	
1500.8	            200.93	
1503.7	            201.38	
1506.7	            201.83	
1509.7	            202.28	
1512.6	            202.72	
1515.6	            203.17	
1518.6	            203.62	
1521.6	            204.07	
1524.5	            204.51	
1527.5	            204.96	
1530.5	            205.41	
1533.4	            205.86	
1536.4	            206.30	
1539.4	            206.75	
1542.4	            207.20	
1545.3	            207.64	
1548.3	            208.09	
1551.3	            208.53	
1554.2	            208.98	
1557.2	            209.43	
1560.2	            209.87	
1563.2	            210.32	
1566.1	            210.77	
1569.1	            211.21	
1572.1	            211.66	
1575.1	            212.10	
1578.0	            212.55	
1581.0	            212.99	
1584.0	            213.44	
1586.9	            213.88	
1589.9	            214.33	
1592.9	            214.77	
1595.9	            215.22	
1598.8	            215.66	
1601.8	            216.11	
1604.8	            216.55	
1607.7	            217.00	
1610.7	            217.44	
1613.7	            217.89	
1616.7	            218.33	
1619.6	            218.78	
1622.6	            219.22	
1625.6	            219.66	
1628.5	            220.11	
1631.5	            220.55	
1634.5	            221.00	
1637.5	            221.44	
1640.4	            221.88	
1643.4	            222.33	
1646.4	            222.77	
1649.3	            223.21	
1652.3	            223.66	
1655.3	            224.10	
1658.3	            224.54	
1661.2	            224.99	
1664.2	            225.43	
1667.2	            225.87	
1670.1	            226.32	
1673.1	            226.76	
1676.1	            227.20	
1679.1	            227.64	
1682.0	            228.09	
1685.0	            228.53	
1688.0	            228.97	
1690.9	            229.41	
1693.9	            229.86	
1696.9	            230.30	
1699.9	            230.74	
1702.8	            231.18	
1705.8	            231.62	
1708.8	            232.07	
1711.7	            232.51	
1714.7	            232.95	
1717.7	            233.39	
1720.7	            233.83	
1723.6	            234.27	
1726.6	            234.71	
1729.6	            235.16	
1732.5	            235.60	
1735.5	            236.04	
1738.5	            236.48	
1741.5	            236.92	
1744.4	            237.36	
1747.4	            237.80	
1750.4	            238.24	
1753.4	            238.68	
1756.3	            239.12	
1759.3	            239.56	
1762.3	            240.00	
1765.2	            240.45	
1768.2	            240.89	
1771.2	            241.33	
1774.2	            241.77	
1777.1	            242.21	
1780.1	            242.65	
1783.1	            243.09	
1786.0	            243.53	
1789.0	            243.97	
1792.0	            244.40	
1795.0	            244.84	
1797.9	            245.28	
1800.9	            245.72	
1803.9	            246.16	
1806.8	            246.60	
1809.8	            247.04	
1812.8	            247.48	
1815.8	            247.92	
1818.7	            248.36	
1821.7	            248.80	
1824.7	            249.24	
1827.6	            249.67	
1830.6	            250.11	
1833.6	            250.55	
1836.6	            250.99	
1839.5	            251.43	
1842.5	            251.87	
1845.5	            252.31	
1848.4	            252.74	
1851.4	            253.18	
1854.4	            253.62	
1857.4	            254.06	
1860.3	            254.50	
1863.3	            254.93	
1866.3	            255.37	
1869.2	            255.81	
1872.2	            256.25	
1875.2	            256.69	
1878.2	            257.12	
1881.1	            257.56	
1884.1	            258.00	
1887.1	            258.44	
1890.0	            258.87	
1893.0	            259.31	
1896.0	            259.75	
1899.0	            260.18	
1901.9	            260.62	
1904.9	            261.06	
1907.9	            261.50	
1910.8	            261.93	
1913.8	            262.37	
1916.8	            262.81	
1919.8	            263.24	
1922.7	            263.68	
1925.7	            264.12	
1928.7	            264.55	
1931.7	            264.99	
1934.6	            265.42	
1937.6	            265.86	
1940.6	            266.30	
1943.5	            266.73	
1946.5	            267.17	
1949.5	            267.60	
1952.5	            268.04	
1955.4	            268.48	
1958.4	            268.91	
1961.4	            269.35	
1964.3	            269.78	
1967.3	            270.22	
1970.3	            270.65	
1973.3	            271.09	
1976.2	            271.53	
1979.2	            271.96	
1982.2	            272.40	
1985.1	            272.83	
1988.1	            273.27	
1991.1	            273.70	
1994.1	            274.14	
1997.0	            274.57	
2000.0	            275.01	
