#Temperature (K)	Pressure (MPa)	Quality (l+v)	Internal Energy (l+v, kJ/mol)	Enthalpy (l+v, kJ/mol)	Entropy (l+v, J/mol*K)	Density (l, kg/m3)	Volume (l, m3/kg)	Internal Energy (l, kJ/mol)	Enthalpy (l, kJ/mol)	Entropy (l, J/mol*K)	Cv (l, J/mol*K)	Cp (l, J/mol*K)	Sound Spd. (l, m/s)	Joule-Thomson (l, K/MPa)	Viscosity (l, uPa*s)	Therm. Cond. (l, W/m*K)	Density (v, kg/m3)	Volume (v, m3/kg)	Internal Energy (v, kJ/mol)	Enthalpy (v, kJ/mol)	Entropy (v, J/mol*K)	Cv (v, J/mol*K)	Cp (v, J/mol*K)	Sound Spd. (v, m/s)	Joule-Thomson (v, K/MPa)	Viscosity (v, uPa*s)	Therm. Cond. (v, W/m*K)
216.59	0.51796	0.017962	3.7506	3.7993	24.222	1178.5	0.00084856	3.5030	3.5223	22.943	42.895	85.960	975.85	-0.14430	253.37	0.17716	13.761	0.072670	17.286	18.943	94.138	27.691	39.992	222.78	26.174	10.892	0.011116
218.59	0.56451	0.019444	3.9390	3.9921	25.088	1171.3	0.00085378	3.6738	3.6950	23.729	42.769	86.173	961.38	-0.13711	244.99	0.17466	14.941	0.066932	17.312	18.975	93.629	27.940	40.541	223.01	25.525	10.991	0.011295
220.59	0.61415	0.021017	4.1285	4.1863	25.951	1164.0	0.00085912	3.8450	3.8682	24.509	42.646	86.411	946.94	-0.12949	236.93	0.17216	16.198	0.061737	17.337	19.005	93.129	28.196	41.117	223.20	24.903	11.092	0.011478
222.59	0.66700	0.022685	4.3192	4.3819	26.811	1156.6	0.00086458	4.0165	4.0418	25.283	42.525	86.673	932.52	-0.12142	229.17	0.16968	17.536	0.057024	17.360	19.034	92.637	28.458	41.721	223.35	24.305	11.193	0.011666
224.59	0.72320	0.024453	4.5110	4.5791	27.669	1149.2	0.00087017	4.1884	4.2160	26.053	42.407	86.961	918.10	-0.11285	221.70	0.16721	18.960	0.052742	17.383	19.062	92.153	28.726	42.356	223.47	23.732	11.295	0.011860
226.59	0.78287	0.026324	4.7040	4.7777	28.525	1141.7	0.00087590	4.3607	4.3908	26.818	42.292	87.278	903.68	-0.10377	214.51	0.16475	20.473	0.048844	17.404	19.087	91.676	29.002	43.024	223.54	23.180	11.398	0.012058
228.59	0.84614	0.028303	4.8983	4.9779	29.379	1134.1	0.00088177	4.5335	4.5663	27.578	42.180	87.624	889.26	-0.094132	207.58	0.16230	22.081	0.045288	17.425	19.111	91.205	29.285	43.727	223.58	22.650	11.502	0.012263
230.59	0.91314	0.030394	5.0939	5.1798	30.230	1126.4	0.00088779	4.7068	4.7424	28.334	42.071	88.001	874.81	-0.083902	200.89	0.15985	23.787	0.042040	17.444	19.133	90.741	29.575	44.467	223.57	22.139	11.608	0.012474
232.59	0.98401	0.032604	5.2908	5.3834	31.081	1118.6	0.00089396	4.8806	4.9193	29.085	41.965	88.412	860.34	-0.073039	194.45	0.15742	25.597	0.039068	17.461	19.153	90.282	29.872	45.249	223.52	21.647	11.714	0.012692
234.59	1.0589	0.034937	5.4891	5.5888	31.930	1110.7	0.00090031	5.0551	5.0970	29.834	41.863	88.858	845.84	-0.061496	188.23	0.15499	27.515	0.036343	17.478	19.171	89.828	30.177	46.074	223.43	21.172	11.823	0.012917
236.59	1.1379	0.037399	5.6888	5.7959	32.777	1102.7	0.00090683	5.2302	5.2756	30.578	41.764	89.342	831.29	-0.049221	182.24	0.15258	29.549	0.033842	17.493	19.187	89.379	30.490	46.947	223.29	20.714	11.933	0.013151
238.59	1.2212	0.039996	5.8900	6.0049	33.624	1094.6	0.00091354	5.4060	5.4551	31.320	41.669	89.867	816.70	-0.036158	176.45	0.15017	31.703	0.031543	17.506	19.201	88.933	30.811	47.871	223.11	20.272	12.044	0.013392
240.59	1.3089	0.042734	6.0927	6.2159	34.470	1086.4	0.00092045	5.5826	5.6357	32.058	41.578	90.437	802.03	-0.022242	170.85	0.14777	33.984	0.029426	17.518	19.213	88.491	31.140	48.852	222.89	19.844	12.158	0.013644
242.59	1.4012	0.045620	6.2969	6.4288	35.315	1078.1	0.00092757	5.7601	5.8173	32.795	41.491	91.054	787.30	-0.0074017	165.45	0.14537	36.399	0.027473	17.528	19.222	88.052	31.479	49.895	222.62	19.431	12.274	0.013905
244.59	1.4982	0.048662	6.5028	6.6438	36.161	1069.6	0.00093492	5.9384	6.0000	33.529	41.409	91.723	772.47	0.0084442	160.22	0.14298	38.956	0.025670	17.537	19.229	87.615	31.827	51.006	222.31	19.031	12.392	0.014178
246.59	1.6000	0.051868	6.7103	6.8609	37.005	1061.0	0.00094251	6.1177	6.1840	34.261	41.331	92.449	757.54	0.025387	155.17	0.14060	41.662	0.024002	17.543	19.233	87.179	32.186	52.194	221.94	18.642	12.513	0.014463
248.59	1.7068	0.055246	6.9195	7.0801	37.850	1052.2	0.00095036	6.2980	6.3694	34.991	41.259	93.236	742.48	0.043531	150.27	0.13822	44.527	0.022458	17.548	19.235	86.745	32.557	53.468	221.53	18.265	12.637	0.014762
250.59	1.8187	0.058806	7.1305	7.3016	38.696	1043.3	0.00095848	6.4794	6.5561	35.721	41.194	94.092	727.26	0.062992	145.54	0.13584	47.560	0.021026	17.551	19.234	86.310	32.943	54.837	221.07	17.897	12.764	0.015075
252.59	1.9360	0.062557	7.3432	7.5254	39.541	1034.2	0.00096691	6.6620	6.7444	36.449	41.136	95.021	711.86	0.083902	140.94	0.13347	50.770	0.019697	17.551	19.229	85.876	33.342	56.311	220.56	17.538	12.895	0.015405
254.59	2.0586	0.066512	7.5579	7.7516	40.388	1025.0	0.00097565	6.8460	6.9343	37.178	41.088	96.033	696.23	0.10641	136.49	0.13110	54.171	0.018460	17.549	19.222	85.441	33.757	57.904	219.99	17.188	13.029	0.015754
256.59	2.1869	0.070682	7.7744	7.9802	41.235	1015.5	0.00098474	7.0313	7.1260	37.906	41.052	97.137	680.35	0.13067	132.16	0.12874	57.773	0.017309	17.545	19.211	85.004	34.187	59.627	219.37	16.845	13.168	0.016122
258.59	2.3209	0.075081	7.9929	8.2114	42.083	1005.8	0.00099421	7.2181	7.3196	38.635	41.032	98.341	664.17	0.15689	127.96	0.12637	61.591	0.016236	17.538	19.197	84.565	34.633	61.498	218.70	16.509	13.311	0.016514
260.59	2.4608	0.079724	8.2135	8.4451	42.933	995.93	0.0010041	7.4065	7.5152	39.365	41.031	99.661	647.66	0.18527	123.87	0.12401	65.641	0.015234	17.529	19.179	84.123	35.093	63.533	217.96	16.180	13.460	0.016931
262.59	2.6068	0.084627	8.4362	8.6815	43.784	985.80	0.0010144	7.5967	7.7130	40.096	41.051	101.11	630.82	0.21605	119.89	0.12165	69.939	0.014298	17.517	19.157	83.677	35.569	65.756	217.17	15.857	13.615	0.017377
264.59	2.7591	0.089811	8.6610	8.9207	44.637	975.41	0.0010252	7.7887	7.9132	40.830	41.096	102.71	613.62	0.24953	116.01	0.11929	74.505	0.013422	17.501	19.131	83.226	36.061	68.194	216.33	15.540	13.776	0.017855
266.59	2.9177	0.095296	8.8881	9.1627	45.492	964.73	0.0010366	7.9829	8.1160	41.566	41.168	104.48	596.08	0.28603	112.23	0.11692	79.360	0.012601	17.482	19.100	82.769	36.570	70.883	215.43	15.227	13.944	0.018371
268.59	3.0830	0.10111	9.1176	9.4078	46.350	953.76	0.0010485	8.1793	8.3215	42.306	41.266	106.45	578.22	0.32596	108.54	0.11455	84.530	0.011830	17.460	19.065	82.304	37.098	73.864	214.46	14.919	14.121	0.018930
270.59	3.2550	0.10727	9.3495	9.6559	47.210	942.44	0.0010611	8.3782	8.5302	43.050	41.391	108.66	560.06	0.36980	104.92	0.11219	90.043	0.011106	17.433	19.024	81.831	37.647	77.193	213.44	14.614	14.307	0.019538
272.59	3.4339	0.11382	9.5840	9.9072	48.073	930.76	0.0010744	8.5798	8.7422	43.800	41.540	111.14	541.63	0.41812	101.38	0.10981	95.932	0.010424	17.402	18.978	81.348	38.221	80.937	212.36	14.311	14.504	0.020203
274.59	3.6201	0.12080	9.8211	10.162	48.940	918.68	0.0010885	8.7845	8.9579	44.556	41.712	113.95	522.97	0.47162	97.899	0.10743	102.24	0.0097813	17.367	18.925	80.853	38.822	85.185	211.20	14.009	14.713	0.020936
276.59	3.8135	0.12824	10.061	10.420	49.811	906.14	0.0011036	8.9925	9.1777	45.319	41.904	117.17	504.11	0.53114	94.478	0.10505	109.00	0.0091744	17.325	18.865	80.344	39.456	90.048	209.98	13.706	14.936	0.021748
278.59	4.0146	0.13621	10.304	10.682	50.686	893.10	0.0011197	9.2044	9.4022	46.093	42.113	120.88	485.06	0.59775	91.105	0.10266	116.28	0.0086002	17.278	18.798	79.819	40.128	95.677	208.68	13.402	15.176	0.022654
280.59	4.2234	0.14476	10.550	10.948	51.567	879.49	0.0011370	9.4205	9.6318	46.877	42.338	125.20	465.83	0.67275	87.770	0.10026	124.13	0.0080558	17.225	18.722	79.274	40.846	102.27	207.30	13.093	15.434	0.023675
282.59	4.4402	0.15398	10.800	11.218	52.453	865.23	0.0011558	9.6416	9.8674	47.675	42.580	130.32	446.42	0.75778	84.461	0.097856	132.65	0.0075386	17.164	18.637	78.706	41.616	110.11	205.83	12.778	15.715	0.024835
284.59	4.6653	0.16396	11.053	11.492	53.346	850.21	0.0011762	9.8683	10.110	48.489	42.843	136.48	426.79	0.85495	81.166	0.095444	141.93	0.0070459	17.094	18.540	78.112	42.450	119.58	204.27	12.455	16.024	0.026167
286.59	4.8990	0.17483	11.310	11.771	54.247	834.31	0.0011986	10.102	10.360	49.323	43.134	144.04	406.88	0.96704	77.869	0.093029	152.09	0.0065750	17.014	18.431	77.485	43.362	131.27	202.60	12.119	16.366	0.027716
288.59	5.1415	0.18677	11.572	12.056	55.157	817.36	0.0012235	10.343	10.620	50.182	43.465	153.51	386.57	1.0977	74.552	0.090619	163.31	0.0061233	16.922	18.307	76.818	44.372	146.06	200.80	11.768	16.748	0.029546
290.59	5.3932	0.19998	11.839	12.346	56.078	799.12	0.0012514	10.595	10.892	51.072	43.858	165.73	365.69	1.2523	71.190	0.088230	175.81	0.0056878	16.815	18.165	76.101	45.505	165.36	198.85	11.396	17.183	0.031746
292.59	5.6544	0.21479	12.111	12.643	57.012	779.27	0.0012833	10.859	11.178	52.003	44.349	182.06	343.93	1.4383	67.751	0.085897	189.92	0.0052654	16.690	18.001	75.322	46.803	191.59	196.73	10.995	17.686	0.034454
294.59	5.9256	0.23168	12.390	12.948	57.962	757.35	0.0013204	11.138	11.482	52.987	45.009	205.06	320.84	1.6680	64.193	0.083695	206.11	0.0048519	16.542	17.808	74.459	48.329	229.26	194.36	10.555	18.282	0.037892
296.59	6.2072	0.25141	12.677	13.261	58.932	732.59	0.0013650	11.439	11.812	54.046	45.974	240.30	295.75	1.9615	60.444	0.081801	225.13	0.0044420	16.363	17.576	73.482	50.194	287.71	191.63	10.061	19.011	0.042456
298.59	6.4999	0.27530	12.974	13.585	59.929	703.63	0.0014212	11.772	12.178	55.217	47.525	301.93	267.78	2.3547	56.378	0.080647	248.33	0.0040270	16.137	17.289	72.333	52.614	390.17	188.31	9.4863	19.947	0.048955
300.59	6.8045	0.30619	13.284	13.925	60.967	667.49	0.0014981	12.159	12.608	56.585	50.321	436.80	235.54	2.9166	51.729	0.081394	278.57	0.0035898	15.835	16.910	70.896	56.121	614.81	183.80	8.7822	21.255	0.059529
302.59	7.1224	0.35311	13.619	14.290	62.078	615.29	0.0016252	12.669	13.179	58.405	57.140	960.77	193.85	3.8508	45.726	0.088965	324.78	0.0030790	15.360	16.326	68.805	62.933	1490.0	175.76	7.7955	23.468	0.084072
304.59	7.4563	undefined	13.972	14.674	63.238	467.60	0.0021386	13.972	14.674	63.238	84.404	16109.	145.63	5.8311	32.376	0.19309	467.60	0.0021386	13.972	14.674	63.238	84.404	16109.	145.63	5.8311	32.376	0.19309
306.59	7.7983	undefined	14.113	14.847	63.700	467.60	0.0021386	14.113	14.847	63.700	62.375	2399.7	172.97	5.6361	32.478	0.10285	467.60	0.0021386	14.113	14.847	63.700	62.375	2399.7	172.97	5.6361	32.478	0.10285
308.59	8.1427	undefined	14.231	14.997	64.084	467.60	0.0021386	14.231	14.997	64.084	56.773	1232.3	185.06	5.4441	32.580	0.085889	467.60	0.0021386	14.231	14.997	64.084	56.773	1232.3	185.06	5.4441	32.580	0.085889
310.59	8.4892	undefined	14.342	15.141	64.442	467.60	0.0021386	14.342	15.141	64.442	54.137	827.11	192.93	5.2707	32.682	0.077792	467.60	0.0021386	14.342	15.141	64.442	54.137	827.11	192.93	5.2707	32.682	0.077792
312.59	8.8368	undefined	14.448	15.280	64.782	467.60	0.0021386	14.448	15.280	64.782	51.945	623.25	200.08	5.1153	32.783	0.072708	467.60	0.0021386	14.448	15.280	64.782	51.945	623.25	200.08	5.1153	32.783	0.072708
314.59	9.1853	undefined	14.550	15.414	65.107	467.60	0.0021386	14.550	15.414	65.107	49.962	501.01	206.97	4.9731	32.884	0.069105	467.60	0.0021386	14.550	15.414	65.107	49.962	501.01	206.97	4.9731	32.884	0.069105
316.59	9.5345	undefined	14.648	15.545	65.418	467.60	0.0021386	14.648	15.545	65.418	48.319	420.09	213.36	4.8395	32.985	0.066403	467.60	0.0021386	14.648	15.545	65.418	48.319	420.09	213.36	4.8395	32.985	0.066403
318.59	9.8844	undefined	14.743	15.674	65.719	467.60	0.0021386	14.743	15.674	65.719	47.074	362.98	219.05	4.7113	33.086	0.064310	467.60	0.0021386	14.743	15.674	65.719	47.074	362.98	219.05	4.7113	33.086	0.064310
320.59	10.235	undefined	14.836	15.800	66.010	467.60	0.0021386	14.836	15.800	66.010	46.184	320.73	224.07	4.5874	33.186	0.062648	467.60	0.0021386	14.836	15.800	66.010	46.184	320.73	224.07	4.5874	33.186	0.062648
322.59	10.586	undefined	14.928	15.924	66.295	467.60	0.0021386	14.928	15.924	66.295	45.557	288.29	228.52	4.4672	33.287	0.061303	467.60	0.0021386	14.928	15.924	66.295	45.557	288.29	228.52	4.4672	33.287	0.061303
324.59	10.937	undefined	15.019	16.048	66.575	467.60	0.0021386	15.019	16.048	66.575	45.100	262.61	232.58	4.3512	33.387	0.060192	467.60	0.0021386	15.019	16.048	66.575	45.100	262.61	232.58	4.3512	33.387	0.060192
326.59	11.289	undefined	15.109	16.171	66.851	467.60	0.0021386	15.109	16.171	66.851	44.733	241.75	236.41	4.2397	33.486	0.059261	467.60	0.0021386	15.109	16.171	66.851	44.733	241.75	236.41	4.2397	33.486	0.059261
328.59	11.642	undefined	15.198	16.293	67.123	467.60	0.0021386	15.198	16.293	67.123	44.401	224.43	240.12	4.1330	33.586	0.058469	467.60	0.0021386	15.198	16.293	67.123	44.401	224.43	240.12	4.1330	33.586	0.058469
330.59	11.994	undefined	15.286	16.415	67.392	467.60	0.0021386	15.286	16.415	67.392	44.075	209.79	243.77	4.0312	33.685	0.057790	467.60	0.0021386	15.286	16.415	67.392	44.075	209.79	243.77	4.0312	33.685	0.057790
332.59	12.347	undefined	15.374	16.536	67.657	467.60	0.0021386	15.374	16.536	67.657	43.739	197.24	247.41	3.9341	33.784	0.057204	467.60	0.0021386	15.374	16.536	67.657	43.739	197.24	247.41	3.9341	33.784	0.057204
334.59	12.700	undefined	15.461	16.656	67.918	467.60	0.0021386	15.461	16.656	67.918	43.393	186.36	251.05	3.8414	33.883	0.056695	467.60	0.0021386	15.461	16.656	67.918	43.393	186.36	251.05	3.8414	33.883	0.056695
336.59	13.053	undefined	15.548	16.776	68.175	467.60	0.0021386	15.548	16.776	68.175	43.044	176.84	254.66	3.7529	33.982	0.056254	467.60	0.0021386	15.548	16.776	68.175	43.044	176.84	254.66	3.7529	33.982	0.056254
338.59	13.406	undefined	15.633	16.895	68.429	467.60	0.0021386	15.633	16.895	68.429	42.698	168.44	258.25	3.6681	34.080	0.055871	467.60	0.0021386	15.633	16.895	68.429	42.698	168.44	258.25	3.6681	34.080	0.055871
340.59	13.759	undefined	15.718	17.013	68.680	467.60	0.0021386	15.718	17.013	68.680	42.366	160.99	261.79	3.5865	34.178	0.055539	467.60	0.0021386	15.718	17.013	68.680	42.366	160.99	261.79	3.5865	34.178	0.055539
342.59	14.113	undefined	15.803	17.131	68.927	467.60	0.0021386	15.803	17.131	68.927	42.054	154.35	265.26	3.5079	34.276	0.055253	467.60	0.0021386	15.803	17.131	68.927	42.054	154.35	265.26	3.5079	34.276	0.055253
344.59	14.466	undefined	15.887	17.248	69.171	467.60	0.0021386	15.887	17.248	69.171	41.767	148.40	268.65	3.4319	34.374	0.055007	467.60	0.0021386	15.887	17.248	69.171	41.767	148.40	268.65	3.4319	34.374	0.055007
346.59	14.820	undefined	15.970	17.365	69.412	467.60	0.0021386	15.970	17.365	69.412	41.507	143.05	271.96	3.3584	34.472	0.054797	467.60	0.0021386	15.970	17.365	69.412	41.507	143.05	271.96	3.3584	34.472	0.054797
348.59	15.173	undefined	16.053	17.481	69.650	467.60	0.0021386	16.053	17.481	69.650	41.275	138.21	275.18	3.2870	34.569	0.054618	467.60	0.0021386	16.053	17.481	69.650	41.275	138.21	275.18	3.2870	34.569	0.054618
350.59	15.527	undefined	16.135	17.596	69.886	467.60	0.0021386	16.135	17.596	69.886	41.071	133.83	278.31	3.2177	34.666	0.054467	467.60	0.0021386	16.135	17.596	69.886	41.071	133.83	278.31	3.2177	34.666	0.054467
352.59	15.880	undefined	16.217	17.712	70.119	467.60	0.0021386	16.217	17.712	70.119	40.891	129.83	281.37	3.1504	34.763	0.054340	467.60	0.0021386	16.217	17.712	70.119	40.891	129.83	281.37	3.1504	34.763	0.054340
354.59	16.234	undefined	16.299	17.826	70.350	467.60	0.0021386	16.299	17.826	70.350	40.733	126.19	284.35	3.0850	34.860	0.054236	467.60	0.0021386	16.299	17.826	70.350	40.733	126.19	284.35	3.0850	34.860	0.054236
356.59	16.587	undefined	16.380	17.941	70.578	467.60	0.0021386	16.380	17.941	70.578	40.594	122.84	287.26	3.0215	34.956	0.054150	467.60	0.0021386	16.380	17.941	70.578	40.594	122.84	287.26	3.0215	34.956	0.054150
358.59	16.941	undefined	16.461	18.055	70.805	467.60	0.0021386	16.461	18.055	70.805	40.472	119.76	290.11	2.9597	35.053	0.054082	467.60	0.0021386	16.461	18.055	70.805	40.472	119.76	290.11	2.9597	35.053	0.054082
360.59	17.294	undefined	16.542	18.170	71.030	467.60	0.0021386	16.542	18.170	71.030	40.364	116.92	292.90	2.8996	35.149	0.054029	467.60	0.0021386	16.542	18.170	71.030	40.364	116.92	292.90	2.8996	35.149	0.054029
362.59	17.648	undefined	16.622	18.283	71.253	467.60	0.0021386	16.622	18.283	71.253	40.269	114.29	295.64	2.8413	35.245	0.053990	467.60	0.0021386	16.622	18.283	71.253	40.269	114.29	295.64	2.8413	35.245	0.053990
364.59	18.001	undefined	16.703	18.397	71.474	467.60	0.0021386	16.703	18.397	71.474	40.183	111.85	298.33	2.7845	35.340	0.053963	467.60	0.0021386	16.703	18.397	71.474	40.183	111.85	298.33	2.7845	35.340	0.053963
366.59	18.355	undefined	16.783	18.511	71.694	467.60	0.0021386	16.783	18.511	71.694	40.105	109.57	300.98	2.7293	35.436	0.053947	467.60	0.0021386	16.783	18.511	71.694	40.105	109.57	300.98	2.7293	35.436	0.053947
368.59	18.708	undefined	16.863	18.624	71.912	467.60	0.0021386	16.863	18.624	71.912	40.035	107.45	303.60	2.6757	35.531	0.053941	467.60	0.0021386	16.863	18.624	71.912	40.035	107.45	303.60	2.6757	35.531	0.053941
370.59	19.061	undefined	16.943	18.737	72.128	467.60	0.0021386	16.943	18.737	72.128	39.971	105.46	306.17	2.6235	35.626	0.053945	467.60	0.0021386	16.943	18.737	72.128	39.971	105.46	306.17	2.6235	35.626	0.053945
372.59	19.414	undefined	17.023	18.850	72.343	467.60	0.0021386	17.023	18.850	72.343	39.913	103.59	308.72	2.5727	35.721	0.053956	467.60	0.0021386	17.023	18.850	72.343	39.913	103.59	308.72	2.5727	35.721	0.053956
374.59	19.767	undefined	17.103	18.963	72.557	467.60	0.0021386	17.103	18.963	72.557	39.859	101.84	311.23	2.5233	35.816	0.053976	467.60	0.0021386	17.103	18.963	72.557	39.859	101.84	311.23	2.5233	35.816	0.053976
376.59	20.121	undefined	17.183	19.076	72.769	467.60	0.0021386	17.183	19.076	72.769	39.810	100.19	313.72	2.4752	35.910	0.054002	467.60	0.0021386	17.183	19.076	72.769	39.810	100.19	313.72	2.4752	35.910	0.054002
378.59	20.473	undefined	17.262	19.189	72.979	467.60	0.0021386	17.262	19.189	72.979	39.765	98.636	316.17	2.4284	36.005	0.054034	467.60	0.0021386	17.262	19.189	72.979	39.765	98.636	316.17	2.4284	36.005	0.054034
380.59	20.826	undefined	17.342	19.302	73.189	467.60	0.0021386	17.342	19.302	73.189	39.723	97.166	318.60	2.3827	36.099	0.054072	467.60	0.0021386	17.342	19.302	73.189	39.723	97.166	318.60	2.3827	36.099	0.054072
382.59	21.179	undefined	17.421	19.414	73.397	467.60	0.0021386	17.421	19.414	73.397	39.685	95.776	321.01	2.3383	36.193	0.054116	467.60	0.0021386	17.421	19.414	73.397	39.685	95.776	321.01	2.3383	36.193	0.054116
384.59	21.532	undefined	17.500	19.527	73.604	467.60	0.0021386	17.500	19.527	73.604	39.649	94.459	323.39	2.2949	36.287	0.054164	467.60	0.0021386	17.500	19.527	73.604	39.649	94.459	323.39	2.2949	36.287	0.054164
386.59	21.884	undefined	17.580	19.639	73.809	467.60	0.0021386	17.580	19.639	73.809	39.617	93.210	325.74	2.2526	36.380	0.054217	467.60	0.0021386	17.580	19.639	73.809	39.617	93.210	325.74	2.2526	36.380	0.054217
388.59	22.237	undefined	17.659	19.752	74.014	467.60	0.0021386	17.659	19.752	74.014	39.587	92.024	328.08	2.2114	36.474	0.054274	467.60	0.0021386	17.659	19.752	74.014	39.587	92.024	328.08	2.2114	36.474	0.054274
390.59	22.589	undefined	17.738	19.864	74.217	467.60	0.0021386	17.738	19.864	74.217	39.560	90.897	330.39	2.1712	36.567	0.054335	467.60	0.0021386	17.738	19.864	74.217	39.560	90.897	330.39	2.1712	36.567	0.054335
392.59	22.941	undefined	17.817	19.976	74.419	467.60	0.0021386	17.817	19.976	74.419	39.535	89.823	332.68	2.1319	36.660	0.054399	467.60	0.0021386	17.817	19.976	74.419	39.535	89.823	332.68	2.1319	36.660	0.054399
394.59	23.293	undefined	17.896	20.089	74.620	467.60	0.0021386	17.896	20.089	74.620	39.513	88.800	334.95	2.0936	36.753	0.054467	467.60	0.0021386	17.896	20.089	74.620	39.513	88.800	334.95	2.0936	36.753	0.054467
396.59	23.645	undefined	17.975	20.201	74.819	467.60	0.0021386	17.975	20.201	74.819	39.493	87.825	337.20	2.0561	36.846	0.054537	467.60	0.0021386	17.975	20.201	74.819	39.493	87.825	337.20	2.0561	36.846	0.054537
398.59	23.997	undefined	18.054	20.313	75.018	467.60	0.0021386	18.054	20.313	75.018	39.474	86.893	339.43	2.0195	36.938	0.054610	467.60	0.0021386	18.054	20.313	75.018	39.474	86.893	339.43	2.0195	36.938	0.054610
400.59	24.349	undefined	18.133	20.425	75.215	467.60	0.0021386	18.133	20.425	75.215	39.458	86.003	341.64	1.9838	37.030	0.054686	467.60	0.0021386	18.133	20.425	75.215	39.458	86.003	341.64	1.9838	37.030	0.054686
