#Temperature [K]	Pressure [MPa]
64.000	            0.014602	
67.227	            0.025202	
70.453	            0.041173	
73.680	            0.064179	
76.907	            0.096077	
80.133	            0.13888	    
83.360	            0.19475	    
86.587	            0.26592	    
89.813	            0.35473	    
93.040	            0.46358	    
96.267	            0.59493	    
99.493	            0.75128	    
102.72	            0.93524	    
105.95	            1.1495	    
109.17	            1.3968	    
112.40	            1.6802	    
115.63	            2.0030	    
118.85	            2.3691	    
122.08	            2.7836	    
125.31	            3.2544	    
128.53	            3.7850	    
131.76	            4.3279	    
134.99	            4.8750	    
138.21	            5.4249	    
141.44	            5.9768	    
144.67	            6.5300	    
147.89	            7.0842	    
151.12	            7.6390	    
154.35	            8.1941	    
157.57	            8.7495	    
160.80	            9.3049	    
164.03	            9.8602	    
167.25	            10.415	    
170.48	            10.970	    
173.71	            11.525	    
176.93	            12.079	    
180.16	            12.633	    
183.39	            13.186	    
186.61	            13.739	    
189.84	            14.292	    
193.07	            14.843	    
196.29	            15.395	    
199.52	            15.946	    
202.75	            16.496	    
205.97	            17.045	    
209.20	            17.594	    
212.43	            18.143	    
215.65	            18.690	    
218.88	            19.238	    
222.11	            19.784	    
225.33	            20.330	    
228.56	            20.875	    
231.79	            21.420	    
235.01	            21.964	    
238.24	            22.508	    
241.47	            23.050	    
244.69	            23.593	    
247.92	            24.134	    
251.15	            24.675	    
254.37	            25.215	    
257.60	            25.755	    
260.83	            26.294	    
264.05	            26.833	    
267.28	            27.371	    
270.51	            27.908	    
273.73	            28.445	    
276.96	            28.981	    
280.19	            29.517	    
283.41	            30.052	    
286.64	            30.586	    
289.87	            31.120	    
293.09	            31.653	    
296.32	            32.186	    
299.55	            32.718	    
302.77	            33.250	    
306.00	            33.781	    
309.23	            34.311	    
312.45	            34.841	    
315.68	            35.371	    
318.91	            35.900	    
322.13	            36.428	    
325.36	            36.956	    
328.59	            37.483	    
331.81	            38.010	    
335.04	            38.537	    
338.27	            39.062	    
341.49	            39.588	    
344.72	            40.113	    
347.95	            40.637	    
351.17	            41.161	    
354.40	            41.684	    
357.63	            42.207	    
360.85	            42.729	    
364.08	            43.251	    
367.31	            43.773	    
370.53	            44.294	    
373.76	            44.814	    
376.99	            45.334	    
380.21	            45.854	    
383.44	            46.373	    
386.67	            46.892	    
389.89	            47.410	    
393.12	            47.928	    
396.35	            48.445	    
399.57	            48.962	    
402.80	            49.478	    
406.03	            49.995	    
409.25	            50.510	    
412.48	            51.025	    
415.71	            51.540	    
418.93	            52.055	    
422.16	            52.569	    
425.39	            53.082	    
428.61	            53.595	    
431.84	            54.108	    
435.07	            54.621	    
438.29	            55.132	    
441.52	            55.644	    
444.75	            56.155	    
447.97	            56.666	    
451.20	            57.176	    
454.43	            57.687	    
457.65	            58.196	    
460.88	            58.705	    
464.11	            59.214	    
467.33	            59.723	    
470.56	            60.231	    
473.79	            60.739	    
477.01	            61.246	    
480.24	            61.753	    
483.47	            62.260	    
486.69	            62.766	    
489.92	            63.272	    
493.15	            63.778	    
496.37	            64.283	    
499.60	            64.788	    
502.83	            65.293	    
506.05	            65.797	    
509.28	            66.301	    
512.51	            66.805	    
515.73	            67.308	    
518.96	            67.811	    
522.19	            68.314	    
525.41	            68.816	    
528.64	            69.318	    
531.87	            69.820	    
535.09	            70.321	    
538.32	            70.822	    
541.55	            71.323	    
544.77	            71.823	    
548.00	            72.323	    
551.23	            72.823	    
554.45	            73.322	    
557.68	            73.821	    
560.91	            74.320	    
564.13	            74.819	    
567.36	            75.317	    
570.59	            75.815	    
573.81	            76.312	    
577.04	            76.810	    
580.27	            77.307	    
583.49	            77.804	    
586.72	            78.300	    
589.95	            78.796	    
593.17	            79.292	    
596.40	            79.788	    
599.63	            80.283	    
602.85	            80.778	    
606.08	            81.273	    
609.31	            81.767	    
612.53	            82.261	    
615.76	            82.755	    
618.99	            83.249	    
622.21	            83.742	    
625.44	            84.235	    
628.67	            84.728	    
631.89	            85.221	    
635.12	            85.713	    
638.35	            86.205	    
641.57	            86.697	    
644.80	            87.189	    
648.03	            87.680	    
651.25	            88.171	    
654.48	            88.662	    
657.71	            89.152	    
660.93	            89.642	    
664.16	            90.132	    
667.39	            90.622	    
670.61	            91.111	    
673.84	            91.601	    
677.07	            92.090	    
680.29	            92.578	    
683.52	            93.067	    
686.75	            93.555	    
689.97	            94.043	    
693.20	            94.531	    
696.43	            95.019	    
699.65	            95.506	    
702.88	            95.993	    
706.11	            96.480	    
709.33	            96.966	    
712.56	            97.453	    
715.79	            97.939	    
719.01	            98.425	    
722.24	            98.910	    
725.47	            99.396	    
728.69	            99.881	    
731.92	            100.37	    
735.15	            100.85	    
738.37	            101.34	    
741.60	            101.82	    
744.83	            102.30	    
748.05	            102.79	    
751.28	            103.27	    
754.51	            103.75	    
757.73	            104.24	    
760.96	            104.72	    
764.19	            105.20	    
767.41	            105.69	    
770.64	            106.17	    
773.87	            106.65	    
777.09	            107.13	    
780.32	            107.61	    
783.55	            108.10	    
786.77	            108.58	    
790.00	            109.06	    
793.23	            109.54	    
796.45	            110.02	    
799.68	            110.50	    
802.91	            110.98	    
806.13	            111.46	    
809.36	            111.94	    
812.59	            112.42	    
815.81	            112.90	    
819.04	            113.38	    
822.27	            113.86	    
825.49	            114.34	    
828.72	            114.82	    
831.95	            115.29	    
835.17	            115.77	    
838.40	            116.25	    
841.63	            116.73	    
844.85	            117.21	    
848.08	            117.68	    
851.31	            118.16	    
854.53	            118.64	    
857.76	            119.12	    
860.99	            119.59	    
864.21	            120.07	    
867.44	            120.55	    
870.67	            121.02	    
873.89	            121.50	    
877.12	            121.97	    
880.35	            122.45	    
883.57	            122.93	    
886.80	            123.40	    
890.03	            123.88	    
893.25	            124.35	    
896.48	            124.83	    
899.71	            125.30	    
902.93	            125.77	    
906.16	            126.25	    
909.39	            126.72	    
912.61	            127.20	    
915.84	            127.67	    
919.07	            128.14	    
922.29	            128.62	    
925.52	            129.09	    
928.75	            129.56	    
931.97	            130.04	    
935.20	            130.51	    
938.43	            130.98	    
941.65	            131.45	    
944.88	            131.93	    
948.11	            132.40	    
951.33	            132.87	    
954.56	            133.34	    
957.79	            133.81	    
961.01	            134.29	    
964.24	            134.76	    
967.47	            135.23	    
970.69	            135.70	    
973.92	            136.17	    
977.15	            136.64	    
980.37	            137.11	    
983.60	            137.58	    
986.83	            138.05	    
990.05	            138.52	    
993.28	            138.99	    
996.51	            139.46	    
999.73	            139.93	    
1003.0	            140.40	    
1006.2	            140.87	    
1009.4	            141.34	    
1012.6	            141.81	    
1015.9	            142.28	    
1019.1	            142.74	    
1022.3	            143.21	    
1025.5	            143.68	    
1028.8	            144.15	    
1032.0	            144.62	    
1035.2	            145.08	    
1038.5	            145.55	    
1041.7	            146.02	    
1044.9	            146.49	    
1048.1	            146.95	    
1051.4	            147.42	    
1054.6	            147.89	    
1057.8	            148.36	    
1061.0	            148.82	    
1064.3	            149.29	    
1067.5	            149.76	    
1070.7	            150.22	    
1073.9	            150.69	    
1077.2	            151.15	    
1080.4	            151.62	    
1083.6	            152.08	    
1086.9	            152.55	    
1090.1	            153.02	    
1093.3	            153.48	    
1096.5	            153.95	    
1099.8	            154.41	    
1103.0	            154.88	    
1106.2	            155.34	    
1109.4	            155.80	    
1112.7	            156.27	    
1115.9	            156.73	    
1119.1	            157.20	    
1122.3	            157.66	    
1125.6	            158.13	    
1128.8	            158.59	    
1132.0	            159.05	    
1135.3	            159.52	    
1138.5	            159.98	    
1141.7	            160.44	    
1144.9	            160.91	    
1148.2	            161.37	    
1151.4	            161.83	    
1154.6	            162.29	    
1157.8	            162.76	    
1161.1	            163.22	    
1164.3	            163.68	    
1167.5	            164.14	    
1170.7	            164.61	    
1174.0	            165.07	    
1177.2	            165.53	    
1180.4	            165.99	    
1183.7	            166.45	    
1186.9	            166.91	    
1190.1	            167.38	    
1193.3	            167.84	    
1196.6	            168.30	    
1199.8	            168.76	    
1203.0	            169.22	    
1206.2	            169.68	    
1209.5	            170.14	    
1212.7	            170.60	    
1215.9	            171.06	    
1219.1	            171.52	    
1222.4	            171.98	    
1225.6	            172.44	    
1228.8	            172.90	    
1232.1	            173.36	    
1235.3	            173.82	    
1238.5	            174.28	    
1241.7	            174.74	    
1245.0	            175.20	    
1248.2	            175.66	    
1251.4	            176.12	    
1254.6	            176.57	    
1257.9	            177.03	    
1261.1	            177.49	    
1264.3	            177.95	    
1267.5	            178.41	    
1270.8	            178.87	    
1274.0	            179.32	    
1277.2	            179.78	    
1280.5	            180.24	    
1283.7	            180.70	    
1286.9	            181.16	    
1290.1	            181.61	    
1293.4	            182.07	    
1296.6	            182.53	    
1299.8	            182.99	    
1303.0	            183.44	    
1306.3	            183.90	    
1309.5	            184.36	    
1312.7	            184.81	    
1315.9	            185.27	    
1319.2	            185.73	    
1322.4	            186.18	    
1325.6	            186.64	    
1328.9	            187.10	    
1332.1	            187.55	    
1335.3	            188.01	    
1338.5	            188.46	    
1341.8	            188.92	    
1345.0	            189.37	    
1348.2	            189.83	    
1351.4	            190.29	    
1354.7	            190.74	    
1357.9	            191.20	    
1361.1	            191.65	    
1364.3	            192.11	    
1367.6	            192.56	    
1370.8	            193.02	    
1374.0	            193.47	    
1377.3	            193.93	    
1380.5	            194.38	    
1383.7	            194.83	    
1386.9	            195.29	    
1390.2	            195.74	    
1393.4	            196.20	    
1396.6	            196.65	    
1399.8	            197.10	    
1403.1	            197.56	    
1406.3	            198.01	    
1409.5	            198.47	    
1412.7	            198.92	    
1416.0	            199.37	    
1419.2	            199.83	    
1422.4	            200.28	    
1425.7	            200.73	    
1428.9	            201.18	    
1432.1	            201.64	    
1435.3	            202.09	    
1438.6	            202.54	    
1441.8	            203.00	    
1445.0	            203.45	    
1448.2	            203.90	    
1451.5	            204.35	    
1454.7	            204.80	    
1457.9	            205.26	    
1461.1	            205.71	    
1464.4	            206.16	    
1467.6	            206.61	    
1470.8	            207.06	    
1474.1	            207.52	    
1477.3	            207.97	    
1480.5	            208.42	    
1483.7	            208.87	    
1487.0	            209.32	    
1490.2	            209.77	    
1493.4	            210.22	    
1496.6	            210.67	    
1499.9	            211.12	    
1503.1	            211.58	    
1506.3	            212.03	    
1509.5	            212.48	    
1512.8	            212.93	    
1516.0	            213.38	    
1519.2	            213.83	    
1522.5	            214.28	    
1525.7	            214.73	    
1528.9	            215.18	    
1532.1	            215.63	    
1535.4	            216.08	    
1538.6	            216.53	    
1541.8	            216.98	    
1545.0	            217.43	    
1548.3	            217.88	    
1551.5	            218.32	    
1554.7	            218.77	    
1557.9	            219.22	    
1561.2	            219.67	    
1564.4	            220.12	    
1567.6	            220.57	    
1570.9	            221.02	    
1574.1	            221.47	    
1577.3	            221.92	    
1580.5	            222.36	    
1583.8	            222.81	    
1587.0	            223.26	    
1590.2	            223.71	    
1593.4	            224.16	    
1596.7	            224.61	    
1599.9	            225.05	    
1603.1	            225.50	    
1606.3	            225.95	    
1609.6	            226.40	    
1612.8	            226.84	    
1616.0	            227.29	    
1619.3	            227.74	    
1622.5	            228.19	    
1625.7	            228.63	    
1628.9	            229.08	    
1632.2	            229.53	    
1635.4	            229.98	    
1638.6	            230.42	    
1641.8	            230.87	    
1645.1	            231.32	    
1648.3	            231.76	    
1651.5	            232.21	    
1654.7	            232.66	    
1658.0	            233.10	    
1661.2	            233.55	    
1664.4	            234.00	    
1667.7	            234.44	    
1670.9	            234.89	    
1674.1	            235.33	    
1677.3	            235.78	    
1680.6	            236.23	    
1683.8	            236.67	    
1687.0	            237.12	    
1690.2	            237.56	    
1693.5	            238.01	    
1696.7	            238.45	    
1699.9	            238.90	    
1703.1	            239.34	    
1706.4	            239.79	    
1709.6	            240.23	    
1712.8	            240.68	    
1716.1	            241.12	    
1719.3	            241.57	    
1722.5	            242.01	    
1725.7	            242.46	    
1729.0	            242.90	    
1732.2	            243.35	    
1735.4	            243.79	    
1738.6	            244.24	    
1741.9	            244.68	    
1745.1	            245.13	    
1748.3	            245.57	    
1751.5	            246.01	    
1754.8	            246.46	    
1758.0	            246.90	    
1761.2	            247.35	    
1764.5	            247.79	    
1767.7	            248.23	    
1770.9	            248.68	    
1774.1	            249.12	    
1777.4	            249.56	    
1780.6	            250.01	    
1783.8	            250.45	    
1787.0	            250.89	    
1790.3	            251.34	    
1793.5	            251.78	    
1796.7	            252.22	    
1799.9	            252.67	    
1803.2	            253.11	    
1806.4	            253.55	    
1809.6	            253.99	    
1812.9	            254.44	    
1816.1	            254.88	    
1819.3	            255.32	    
1822.5	            255.76	    
1825.8	            256.21	    
1829.0	            256.65	    
1832.2	            257.09	    
1835.4	            257.53	    
1838.7	            257.98	    
1841.9	            258.42	    
1845.1	            258.86	    
1848.3	            259.30	    
1851.6	            259.74	    
1854.8	            260.19	    
1858.0	            260.63	    
1861.3	            261.07	    
1864.5	            261.51	    
1867.7	            261.95	    
1870.9	            262.39	    
1874.2	            262.83	    
1877.4	            263.28	    
1880.6	            263.72	    
1883.8	            264.16	    
1887.1	            264.60	    
1890.3	            265.04	    
1893.5	            265.48	    
1896.7	            265.92	    
1900.0	            266.36	    
1903.2	            266.80	    
1906.4	            267.24	    
1909.7	            267.68	    
1912.9	            268.12	    
1916.1	            268.56	    
1919.3	            269.00	    
1922.6	            269.44	    
1925.8	            269.88	    
1929.0	            270.32	    
1932.2	            270.76	    
1935.5	            271.20	    
1938.7	            271.64	    
1941.9	            272.08	    
1945.1	            272.52	    
1948.4	            272.96	    
1951.6	            273.40	    
1954.8	            273.84	    
1958.1	            274.28	    
1961.3	            274.72	    
1964.5	            275.16	    
1967.7	            275.60	    
1971.0	            276.04	    
1974.2	            276.48	    
1977.4	            276.92	    
1980.6	            277.36	    
1983.9	            277.80	    
1987.1	            278.23	    
1990.3	            278.67	    
1993.5	            279.11	    
1996.8	            279.55	    
2000.0	            279.99	    
